%OpenBCI Raw EEG Data
%
%Sample Rate = 200.0 Hz
%First Column = SampleIndex
%Last Column = Timestamp 
%Other Columns = EEG data in microvolts followed by Accel Data (in G) interleaved with Aux Data
0, 12.92, 0.00, 12.89, 13.89, 0.000, 0.000, 0.000, 09:23:41.193, 5
1, 15.53, 0.00, 19.20, 19.91, 0.000, 0.000, 0.000, 09:23:41.225, 5
2, 19.01, 0.00, 28.42, 18.38, 0.000, 0.000, 0.000, 09:23:41.228, 5
3, 14.57, 0.00, 19.31, 20.57, 0.000, 0.000, 0.000, 09:23:41.230, 5
4, 11.75, 0.00, 13.48, 14.62, 0.000, 0.000, 0.000, 09:23:41.233, 5
5, 14.00, 0.00, 12.56, 17.81, 0.000, 0.000, 0.000, 09:23:41.235, 5
6, 20.35, 0.00, 23.11, 24.07, 0.000, 0.000, 0.000, 09:23:41.240, 5
7, 20.17, 0.00, 20.52, 21.16, 0.000, 0.000, 0.000, 09:23:41.242, 5
8, 10.02, 0.00, 9.97, 11.69, 0.000, 0.000, 0.000, 09:23:41.245, 5
9, 12.56, 0.00, 16.66, 16.16, 0.000, 0.000, 0.000, 09:23:41.251, 5
10, 17.22, 0.00, 22.35, 20.23, 0.000, 0.000, 0.000, 09:23:41.254, 5
11, 17.29, 0.00, 17.77, 15.01, 0.000, 0.000, 0.000, 09:23:41.257, 5
12, 11.86, 0.00, 11.40, 11.88, 0.000, 0.000, 0.000, 09:23:41.259, 5
13, 13.18, 0.00, 16.84, 14.36, 0.000, 0.000, 0.000, 09:23:41.264, 5
14, 18.77, 0.00, 18.61, 15.29, 0.000, 0.000, 0.000, 09:23:41.268, 5
15, 16.98, 0.00, 18.19, 16.54, 0.000, 0.000, 0.000, 09:23:41.281, 5
16, 12.62, 0.00, 15.44, 14.76, 0.000, 0.000, 0.000, 09:23:41.282, 5
17, 12.44, 0.00, 16.09, 9.89, 0.000, 0.000, 0.000, 09:23:41.284, 5
18, 17.59, 0.00, 20.00, 20.08, 0.000, 0.000, 0.000, 09:23:41.285, 5
19, 15.87, 0.00, 15.85, 16.77, 0.000, 0.000, 0.000, 09:23:41.312, 5
20, 8.38, 0.00, 12.25, 14.26, 0.000, 0.000, 0.000, 09:23:41.313, 5
21, 11.18, 0.00, 19.05, 14.07, 0.000, 0.000, 0.000, 09:23:41.313, 5
22, 19.09, 0.00, 24.67, 19.86, 0.000, 0.000, 0.000, 09:23:41.314, 5
23, 11.60, 0.00, 16.52, 15.94, 0.000, 0.000, 0.000, 09:23:41.315, 5
24, 12.63, 0.00, 12.75, 12.25, 0.000, 0.000, 0.000, 09:23:41.316, 5
25, 13.17, 0.00, 18.31, 16.81, 0.000, 0.000, 0.000, 09:23:41.342, 5
26, 15.93, 0.00, 15.03, 15.97, 0.000, 0.000, 0.000, 09:23:41.344, 5
27, 13.69, 0.00, 23.23, 17.31, 0.000, 0.000, 0.000, 09:23:41.345, 5
28, 13.93, 0.00, 17.83, 14.82, 0.000, 0.000, 0.000, 09:23:41.345, 5
29, 12.51, 0.00, 8.82, 11.00, 0.000, 0.000, 0.000, 09:23:41.346, 5
30, 17.66, 0.00, 25.27, 17.01, 0.000, 0.000, 0.000, 09:23:41.346, 5
31, 19.32, 0.00, 18.25, 15.85, 0.000, 0.000, 0.000, 09:23:41.355, 5
32, 11.02, 0.00, 11.06, 12.47, 0.000, 0.000, 0.000, 09:23:41.356, 5
33, 14.29, 0.00, 17.25, 16.54, 0.000, 0.000, 0.000, 09:23:41.369, 5
34, 14.16, 0.00, 20.66, 22.63, 0.000, 0.000, 0.000, 09:23:41.370, 5
35, 13.21, 0.00, 14.64, 13.16, 0.000, 0.000, 0.000, 09:23:41.371, 5
36, 5.83, 0.00, 14.88, 15.08, 0.000, 0.000, 0.000, 09:23:41.371, 5
37, 14.68, 0.00, 15.39, 17.77, 0.000, 0.000, 0.000, 09:23:41.392, 5
38, 17.67, 0.00, 16.45, 17.40, 0.000, 0.000, 0.000, 09:23:41.392, 5
39, 18.08, 0.00, 20.38, 18.62, 0.000, 0.000, 0.000, 09:23:41.400, 5
40, 13.69, 0.00, 14.91, 10.86, 0.000, 0.000, 0.000, 09:23:41.400, 5
41, 14.82, 0.00, 17.01, 14.08, 0.000, 0.000, 0.000, 09:23:41.400, 5
42, 19.21, 0.00, 21.93, 21.13, 0.000, 0.000, 0.000, 09:23:41.401, 5
43, 19.09, 0.00, 18.50, 19.48, 0.000, 0.000, 0.000, 09:23:41.414, 5
44, 7.80, 0.00, 13.80, 10.40, 0.000, 0.000, 0.000, 09:23:41.415, 5
45, 15.10, 0.00, 19.42, 15.42, 0.000, 0.000, 0.000, 09:23:41.429, 5
46, 16.94, 0.00, 21.39, 21.43, 0.000, 0.000, 0.000, 09:23:41.430, 5
47, 15.20, 0.00, 18.90, 18.10, 0.000, 0.000, 0.000, 09:23:41.430, 5
48, 11.91, 0.00, 15.05, 11.27, 0.000, 0.000, 0.000, 09:23:41.431, 5
49, 16.36, 0.00, 18.16, 20.15, 0.000, 0.000, 0.000, 09:23:41.444, 5
50, 14.31, 0.00, 15.77, 15.12, 0.000, 0.000, 0.000, 09:23:41.445, 5
51, 15.20, 0.00, 19.57, 18.05, 0.000, 0.000, 0.000, 09:23:41.475, 5
52, 13.21, 0.00, 13.10, 10.16, 0.000, 0.000, 0.000, 09:23:41.476, 5
53, 12.33, 0.00, 12.66, 10.28, 0.000, 0.000, 0.000, 09:23:41.476, 5
54, 15.83, 0.00, 20.95, 21.28, 0.000, 0.000, 0.000, 09:23:41.476, 5
55, 13.22, 0.00, 18.43, 17.59, 0.000, 0.000, 0.000, 09:23:41.477, 5
56, 11.42, 0.00, 15.12, 14.98, 0.000, 0.000, 0.000, 09:23:41.477, 5
57, 16.82, 0.00, 19.97, 14.69, 0.000, 0.000, 0.000, 09:23:41.478, 5
58, 18.80, 0.00, 24.15, 19.59, 0.000, 0.000, 0.000, 09:23:41.478, 5
59, 13.69, 0.00, 15.43, 16.16, 0.000, 0.000, 0.000, 09:23:41.489, 5
60, 13.55, 0.00, 16.92, 11.04, 0.000, 0.000, 0.000, 09:23:41.489, 5
61, 15.71, 0.00, 20.75, 17.50, 0.000, 0.000, 0.000, 09:23:41.521, 5
62, 17.59, 0.00, 18.30, 16.99, 0.000, 0.000, 0.000, 09:23:41.521, 5
63, 14.98, 0.00, 20.24, 17.96, 0.000, 0.000, 0.000, 09:23:41.521, 5
64, 12.10, 0.00, 14.75, 13.20, 0.000, 0.000, 0.000, 09:23:41.522, 5
65, 13.72, 0.00, 15.21, 13.39, 0.000, 0.000, 0.000, 09:23:41.522, 5
66, 18.74, 0.00, 21.73, 20.06, 0.000, 0.000, 0.000, 09:23:41.522, 5
67, 15.05, 0.00, 18.42, 15.27, 0.000, 0.000, 0.000, 09:23:41.534, 5
68, 12.15, 0.00, 13.02, 10.40, 0.000, 0.000, 0.000, 09:23:41.534, 5
69, 14.27, 0.00, 17.45, 18.16, 0.000, 0.000, 0.000, 09:23:41.550, 5
70, 17.76, 0.00, 20.43, 18.99, 0.000, 0.000, 0.000, 09:23:41.550, 5
71, 12.70, 0.00, 13.50, 14.37, 0.000, 0.000, 0.000, 09:23:41.565, 5
72, 8.10, 0.00, 14.07, 11.47, 0.000, 0.000, 0.000, 09:23:41.566, 5
73, 15.14, 0.00, 16.33, 12.86, 0.000, 0.000, 0.000, 09:23:41.567, 5
74, 11.48, 0.00, 15.27, 16.72, 0.000, 0.000, 0.000, 09:23:41.567, 5
75, 15.60, 0.00, 18.87, 20.04, 0.000, 0.000, 0.000, 09:23:41.579, 5
76, 10.43, 0.00, 13.48, 12.65, 0.000, 0.000, 0.000, 09:23:41.579, 5
77, 10.08, 0.00, 12.92, 12.00, 0.000, 0.000, 0.000, 09:23:41.579, 5
78, 18.14, 0.00, 18.80, 20.84, 0.000, 0.000, 0.000, 09:23:41.580, 5
79, 15.50, 0.00, 16.95, 17.11, 0.000, 0.000, 0.000, 09:23:41.594, 5
80, 12.08, 0.00, 11.40, 6.74, 0.000, 0.000, 0.000, 09:23:41.594, 5
81, 12.61, 0.00, 19.66, 20.26, 0.000, 0.000, 0.000, 09:23:41.609, 5
82, 17.06, 0.00, 22.99, 21.67, 0.000, 0.000, 0.000, 09:23:41.609, 5
83, 11.79, 0.00, 16.24, 16.35, 0.000, 0.000, 0.000, 09:23:41.610, 5
84, 12.85, 0.00, 14.35, 17.28, 0.000, 0.000, 0.000, 09:23:41.610, 5
85, 14.18, 0.00, 12.51, 15.02, 0.000, 0.000, 0.000, 09:23:41.624, 5
86, 17.17, 0.00, 19.74, 18.04, 0.000, 0.000, 0.000, 09:23:41.624, 5
87, 17.53, 0.00, 21.46, 17.90, 0.000, 0.000, 0.000, 09:23:41.639, 5
88, 13.68, 0.00, 16.72, 12.79, 0.000, 0.000, 0.000, 09:23:41.640, 5
89, 12.19, 0.00, 16.04, 14.28, 0.000, 0.000, 0.000, 09:23:41.641, 5
90, 20.80, 0.00, 17.76, 18.34, 0.000, 0.000, 0.000, 09:23:41.641, 5
91, 18.49, 0.00, 19.18, 17.62, 0.000, 0.000, 0.000, 09:23:41.655, 5
92, 11.35, 0.00, 12.11, 11.59, 0.000, 0.000, 0.000, 09:23:41.656, 5
93, 12.62, 0.00, 16.00, 20.65, 0.000, 0.000, 0.000, 09:23:41.670, 5
94, 16.72, 0.00, 19.93, 21.96, 0.000, 0.000, 0.000, 09:23:41.671, 5
95, 16.32, 0.00, 21.93, 14.76, 0.000, 0.000, 0.000, 09:23:41.672, 5
96, 14.36, 0.00, 13.29, 11.19, 0.000, 0.000, 0.000, 09:23:41.674, 5
97, 15.29, 0.00, 19.73, 15.60, 0.000, 0.000, 0.000, 09:23:41.685, 5
98, 13.97, 0.00, 13.64, 15.54, 0.000, 0.000, 0.000, 09:23:41.686, 5
99, 16.26, 0.00, 21.66, 18.53, 0.000, 0.000, 0.000, 09:23:41.700, 5
100, 17.62, 0.00, 16.93, 15.00, 0.000, 0.000, 0.000, 09:23:41.701, 5
101, 12.68, 0.00, 18.42, 15.15, 0.000, 0.000, 0.000, 09:23:41.701, 5
102, 15.66, 0.00, 20.24, 18.72, 0.000, 0.000, 0.000, 09:23:41.702, 5
103, 16.16, 0.00, 17.58, 19.43, 0.000, 0.000, 0.000, 09:23:41.715, 5
104, 17.75, 0.00, 12.37, 12.40, 0.000, 0.000, 0.000, 09:23:41.715, 5
105, 14.03, 0.00, 18.05, 16.47, 0.000, 0.000, 0.000, 09:23:41.730, 5
106, 15.46, 0.00, 24.37, 22.52, 0.000, 0.000, 0.000, 09:23:41.730, 5
107, 7.63, 0.00, 15.53, 16.56, 0.000, 0.000, 0.000, 09:23:41.730, 5
108, 12.63, 0.00, 15.77, 9.61, 0.000, 0.000, 0.000, 09:23:41.731, 5
109, 16.27, 0.00, 14.97, 15.77, 0.000, 0.000, 0.000, 09:23:41.744, 5
110, 20.30, 0.00, 19.06, 22.74, 0.000, 0.000, 0.000, 09:23:41.745, 5
111, 18.86, 0.00, 20.57, 18.22, 0.000, 0.000, 0.000, 09:23:41.774, 5
112, 14.79, 0.00, 19.05, 14.42, 0.000, 0.000, 0.000, 09:23:41.775, 5
113, 10.60, 0.00, 16.46, 11.53, 0.000, 0.000, 0.000, 09:23:41.775, 5
114, 17.99, 0.00, 23.53, 17.29, 0.000, 0.000, 0.000, 09:23:41.775, 5
115, 12.47, 0.00, 14.42, 14.28, 0.000, 0.000, 0.000, 09:23:41.776, 5
116, 10.85, 0.00, 12.15, 10.65, 0.000, 0.000, 0.000, 09:23:41.776, 5
117, 16.72, 0.00, 18.34, 18.96, 0.000, 0.000, 0.000, 09:23:41.776, 5
118, 17.82, 0.00, 20.32, 20.91, 0.000, 0.000, 0.000, 09:23:41.777, 5
119, 11.74, 0.00, 9.71, 8.30, 0.000, 0.000, 0.000, 09:23:41.789, 5
120, 13.86, 0.00, 11.78, 12.66, 0.000, 0.000, 0.000, 09:23:41.790, 5
121, 12.16, 0.00, 16.48, 17.22, 0.000, 0.000, 0.000, 09:23:41.820, 5
122, 17.74, 0.00, 14.23, 18.28, 0.000, 0.000, 0.000, 09:23:41.821, 5
123, 11.97, 0.00, 16.98, 19.67, 0.000, 0.000, 0.000, 09:23:41.821, 5
124, 15.81, 0.00, 13.22, 14.33, 0.000, 0.000, 0.000, 09:23:41.822, 5
125, 12.26, 0.00, 13.75, 13.90, 0.000, 0.000, 0.000, 09:23:41.824, 5
126, 18.00, 0.00, 20.68, 17.77, 0.000, 0.000, 0.000, 09:23:41.824, 5
127, 10.93, 0.00, 15.94, 17.06, 0.000, 0.000, 0.000, 09:23:41.835, 5
128, 12.39, 0.00, 14.01, 10.86, 0.000, 0.000, 0.000, 09:23:41.836, 5
129, 15.18, 0.00, 20.71, 20.81, 0.000, 0.000, 0.000, 09:23:41.849, 5
130, 18.77, 0.00, 21.02, 17.99, 0.000, 0.000, 0.000, 09:23:41.850, 5
131, 14.08, 0.00, 14.94, 11.72, 0.000, 0.000, 0.000, 09:23:41.864, 5
132, 9.36, 0.00, 14.28, 13.75, 0.000, 0.000, 0.000, 09:23:41.865, 5
133, 14.22, 0.00, 20.51, 19.88, 0.000, 0.000, 0.000, 09:23:41.866, 5
134, 17.52, 0.00, 19.54, 18.66, 0.000, 0.000, 0.000, 09:23:41.866, 5
135, 15.92, 0.00, 17.18, 16.05, 0.000, 0.000, 0.000, 09:23:41.894, 5
136, 14.91, 0.00, 16.55, 17.73, 0.000, 0.000, 0.000, 09:23:41.894, 5
137, 14.38, 0.00, 16.49, 12.70, 0.000, 0.000, 0.000, 09:23:41.894, 5
138, 16.33, 0.00, 22.73, 20.65, 0.000, 0.000, 0.000, 09:23:41.895, 5
139, 12.61, 0.00, 20.50, 15.99, 0.000, 0.000, 0.000, 09:23:41.895, 5
140, 8.89, 0.00, 11.58, 8.47, 0.000, 0.000, 0.000, 09:23:41.895, 5
141, 13.26, 0.00, 17.50, 18.19, 0.000, 0.000, 0.000, 09:23:41.900, 5
142, 14.83, 0.00, 20.58, 17.21, 0.000, 0.000, 0.000, 09:23:41.900, 5
143, 12.86, 0.00, 13.74, 12.01, 0.000, 0.000, 0.000, 09:23:41.909, 5
144, 11.87, 0.00, 17.03, 15.80, 0.000, 0.000, 0.000, 09:23:41.909, 5
145, 15.31, 0.00, 20.73, 16.32, 0.000, 0.000, 0.000, 09:23:41.924, 5
146, 15.41, 0.00, 18.76, 17.24, 0.000, 0.000, 0.000, 09:23:41.924, 5
147, 16.48, 0.00, 16.85, 19.40, 0.000, 0.000, 0.000, 09:23:41.939, 5
148, 6.60, 0.00, 13.04, 11.78, 0.000, 0.000, 0.000, 09:23:41.939, 5
149, 15.10, 0.00, 15.97, 13.46, 0.000, 0.000, 0.000, 09:23:41.940, 5
150, 16.67, 0.00, 22.30, 20.47, 0.000, 0.000, 0.000, 09:23:41.940, 5
151, 19.58, 0.00, 17.38, 18.56, 0.000, 0.000, 0.000, 09:23:41.954, 5
152, 13.58, 0.00, 7.73, 12.03, 0.000, 0.000, 0.000, 09:23:41.954, 5
153, 15.13, 0.00, 18.68, 20.31, 0.000, 0.000, 0.000, 09:23:41.970, 5
154, 20.43, 0.00, 18.88, 21.41, 0.000, 0.000, 0.000, 09:23:41.970, 5
155, 12.97, 0.00, 16.33, 15.57, 0.000, 0.000, 0.000, 09:23:41.970, 5
156, 11.66, 0.00, 13.01, 12.92, 0.000, 0.000, 0.000, 09:23:41.970, 5
157, 18.64, 0.00, 22.02, 18.05, 0.000, 0.000, 0.000, 09:23:41.984, 5
158, 17.75, 0.00, 19.25, 17.70, 0.000, 0.000, 0.000, 09:23:41.985, 5
159, 15.83, 0.00, 19.55, 15.99, 0.000, 0.000, 0.000, 09:23:41.999, 5
160, 9.65, 0.00, 15.63, 11.43, 0.000, 0.000, 0.000, 09:23:41.999, 5
161, 11.98, 0.00, 17.20, 17.19, 0.000, 0.000, 0.000, 09:23:42.000, 5
162, 17.34, 0.00, 22.58, 18.97, 0.000, 0.000, 0.000, 09:23:42.002, 5
163, 14.70, 0.00, 15.22, 16.76, 0.000, 0.000, 0.000, 09:23:42.030, 5
164, 12.45, 0.00, 11.10, 6.75, 0.000, 0.000, 0.000, 09:23:42.030, 5
165, 15.97, 0.00, 16.88, 16.21, 0.000, 0.000, 0.000, 09:23:42.030, 5
166, 15.11, 0.00, 17.84, 22.75, 0.000, 0.000, 0.000, 09:23:42.031, 5
167, 14.65, 0.00, 12.85, 15.82, 0.000, 0.000, 0.000, 09:23:42.031, 5
168, 12.10, 0.00, 14.89, 8.71, 0.000, 0.000, 0.000, 09:23:42.031, 5
169, 16.59, 0.00, 18.10, 20.74, 0.000, 0.000, 0.000, 09:23:42.045, 5
170, 15.28, 0.00, 18.19, 16.21, 0.000, 0.000, 0.000, 09:23:42.045, 5
171, 16.46, 0.00, 21.81, 18.74, 0.000, 0.000, 0.000, 09:23:42.074, 5
172, 12.52, 0.00, 13.82, 16.50, 0.000, 0.000, 0.000, 09:23:42.074, 5
173, 12.16, 0.00, 17.70, 13.96, 0.000, 0.000, 0.000, 09:23:42.075, 5
174, 13.13, 0.00, 24.22, 18.17, 0.000, 0.000, 0.000, 09:23:42.075, 5
175, 15.29, 0.00, 16.27, 18.42, 0.000, 0.000, 0.000, 09:23:42.075, 5
176, 8.51, 0.00, 8.92, 7.11, 0.000, 0.000, 0.000, 09:23:42.076, 5
177, 17.96, 0.00, 17.88, 20.21, 0.000, 0.000, 0.000, 09:23:42.076, 5
178, 18.48, 0.00, 24.19, 20.03, 0.000, 0.000, 0.000, 09:23:42.077, 5
179, 15.16, 0.00, 18.79, 13.14, 0.000, 0.000, 0.000, 09:23:42.089, 5
180, 19.88, 0.00, 15.11, 16.68, 0.000, 0.000, 0.000, 09:23:42.090, 5
181, 19.44, 0.00, 21.09, 20.54, 0.000, 0.000, 0.000, 09:23:42.121, 5
182, 16.51, 0.00, 15.66, 18.36, 0.000, 0.000, 0.000, 09:23:42.122, 5
183, 13.68, 0.00, 15.40, 18.30, 0.000, 0.000, 0.000, 09:23:42.123, 5
184, 8.80, 0.00, 14.01, 9.65, 0.000, 0.000, 0.000, 09:23:42.123, 5
185, 17.34, 0.00, 18.53, 15.23, 0.000, 0.000, 0.000, 09:23:42.124, 5
186, 18.40, 0.00, 23.11, 23.73, 0.000, 0.000, 0.000, 09:23:42.124, 5
187, 12.99, 0.00, 21.74, 17.69, 0.000, 0.000, 0.000, 09:23:42.151, 5
188, 9.30, 0.00, 10.14, 10.95, 0.000, 0.000, 0.000, 09:23:42.152, 5
189, 12.62, 0.00, 18.44, 19.83, 0.000, 0.000, 0.000, 09:23:42.155, 5
190, 19.77, 0.00, 19.58, 21.09, 0.000, 0.000, 0.000, 09:23:42.156, 5
191, 14.28, 0.00, 15.57, 18.26, 0.000, 0.000, 0.000, 09:23:42.157, 5
192, 8.34, 0.00, 13.45, 10.47, 0.000, 0.000, 0.000, 09:23:42.157, 5
193, 13.88, 0.00, 17.18, 12.83, 0.000, 0.000, 0.000, 09:23:42.176, 5
194, 12.34, 0.00, 18.88, 16.07, 0.000, 0.000, 0.000, 09:23:42.176, 5
195, 12.74, 0.00, 15.93, 15.57, 0.000, 0.000, 0.000, 09:23:42.179, 5
196, 13.67, 0.00, 12.18, 11.63, 0.000, 0.000, 0.000, 09:23:42.179, 5
197, 14.49, 0.00, 19.18, 16.03, 0.000, 0.000, 0.000, 09:23:42.180, 5
198, 18.67, 0.00, 23.63, 22.63, 0.000, 0.000, 0.000, 09:23:42.180, 5
199, 12.80, 0.00, 19.31, 15.44, 0.000, 0.000, 0.000, 09:23:42.194, 5
200, 12.13, 0.00, 9.31, 8.30, 0.000, 0.000, 0.000, 09:23:42.194, 5
0, 14.73, 0.00, 17.22, 19.79, 0.000, 0.000, 0.000, 09:23:42.195, 5
1, 19.94, 0.00, 22.98, 23.31, 0.000, 0.000, 0.000, 09:23:42.209, 5
2, 11.67, 0.00, 11.61, 10.13, 0.000, 0.000, 0.000, 09:23:42.209, 5
3, 13.45, 0.00, 12.15, 11.59, 0.000, 0.000, 0.000, 09:23:42.224, 5
4, 15.78, 0.00, 18.38, 19.31, 0.000, 0.000, 0.000, 09:23:42.225, 5
5, 17.01, 0.00, 20.48, 16.06, 0.000, 0.000, 0.000, 09:23:42.225, 5
6, 13.23, 0.00, 12.44, 16.22, 0.000, 0.000, 0.000, 09:23:42.225, 5
7, 12.30, 0.00, 10.98, 11.88, 0.000, 0.000, 0.000, 09:23:42.239, 5
8, 13.62, 0.00, 15.53, 14.03, 0.000, 0.000, 0.000, 09:23:42.240, 5
9, 16.48, 0.00, 22.31, 23.49, 0.000, 0.000, 0.000, 09:23:42.254, 5
10, 18.08, 0.00, 18.85, 16.67, 0.000, 0.000, 0.000, 09:23:42.254, 5
11, 10.85, 0.00, 10.82, 12.55, 0.000, 0.000, 0.000, 09:23:42.254, 5
12, 12.42, 0.00, 17.50, 15.78, 0.000, 0.000, 0.000, 09:23:42.255, 5
13, 14.64, 0.00, 23.13, 21.25, 0.000, 0.000, 0.000, 09:23:42.269, 5
14, 9.24, 0.00, 13.85, 16.36, 0.000, 0.000, 0.000, 09:23:42.270, 5
15, 13.71, 0.00, 10.53, 10.49, 0.000, 0.000, 0.000, 09:23:42.285, 5
16, 17.43, 0.00, 17.27, 17.95, 0.000, 0.000, 0.000, 09:23:42.286, 5
17, 16.98, 0.00, 19.21, 16.95, 0.000, 0.000, 0.000, 09:23:42.286, 5
18, 19.84, 0.00, 15.08, 16.42, 0.000, 0.000, 0.000, 09:23:42.286, 5
19, 9.44, 0.00, 13.62, 14.03, 0.000, 0.000, 0.000, 09:23:42.299, 5
20, 16.54, 0.00, 20.58, 16.11, 0.000, 0.000, 0.000, 09:23:42.299, 5
21, 16.00, 0.00, 22.84, 21.95, 0.000, 0.000, 0.000, 09:23:42.329, 5
22, 9.31, 0.00, 17.23, 15.80, 0.000, 0.000, 0.000, 09:23:42.329, 5
23, 7.69, 0.00, 12.08, 9.73, 0.000, 0.000, 0.000, 09:23:42.330, 5
24, 15.88, 0.00, 18.39, 17.27, 0.000, 0.000, 0.000, 09:23:42.330, 5
25, 20.28, 0.00, 22.43, 23.72, 0.000, 0.000, 0.000, 09:23:42.330, 5
26, 10.10, 0.00, 15.36, 13.19, 0.000, 0.000, 0.000, 09:23:42.330, 5
27, 11.64, 0.00, 16.89, 11.49, 0.000, 0.000, 0.000, 09:23:42.331, 5
28, 15.65, 0.00, 21.22, 17.80, 0.000, 0.000, 0.000, 09:23:42.332, 5
29, 18.56, 0.00, 17.49, 16.42, 0.000, 0.000, 0.000, 09:23:42.344, 5
30, 15.94, 0.00, 17.56, 16.00, 0.000, 0.000, 0.000, 09:23:42.344, 5
31, 15.69, 0.00, 16.20, 14.08, 0.000, 0.000, 0.000, 09:23:42.359, 5
32, 17.87, 0.00, 18.74, 15.82, 0.000, 0.000, 0.000, 09:23:42.360, 5
33, 17.09, 0.00, 21.06, 18.35, 0.000, 0.000, 0.000, 09:23:42.374, 5
34, 14.63, 0.00, 14.09, 12.38, 0.000, 0.000, 0.000, 09:23:42.375, 5
35, 11.95, 0.00, 13.48, 10.39, 0.000, 0.000, 0.000, 09:23:42.375, 5
36, 19.04, 0.00, 16.42, 16.81, 0.000, 0.000, 0.000, 09:23:42.375, 5
37, 19.08, 0.00, 23.63, 18.93, 0.000, 0.000, 0.000, 09:23:42.388, 5
38, 15.86, 0.00, 10.96, 10.91, 0.000, 0.000, 0.000, 09:23:42.389, 5
39, 11.55, 0.00, 14.02, 11.16, 0.000, 0.000, 0.000, 09:23:42.405, 5
40, 15.15, 0.00, 20.27, 19.08, 0.000, 0.000, 0.000, 09:23:42.405, 5
41, 17.47, 0.00, 19.22, 19.94, 0.000, 0.000, 0.000, 09:23:42.405, 5
42, 11.94, 0.00, 15.30, 17.00, 0.000, 0.000, 0.000, 09:23:42.406, 5
43, 12.44, 0.00, 12.95, 13.04, 0.000, 0.000, 0.000, 09:23:42.421, 5
44, 12.14, 0.00, 13.57, 16.77, 0.000, 0.000, 0.000, 09:23:42.421, 5
45, 19.14, 0.00, 21.79, 22.62, 0.000, 0.000, 0.000, 09:23:42.435, 5
46, 13.91, 0.00, 18.15, 16.85, 0.000, 0.000, 0.000, 09:23:42.436, 5
47, 9.33, 0.00, 13.57, 8.82, 0.000, 0.000, 0.000, 09:23:42.436, 5
48, 15.32, 0.00, 22.81, 18.09, 0.000, 0.000, 0.000, 09:23:42.436, 5
49, 18.51, 0.00, 22.24, 23.60, 0.000, 0.000, 0.000, 09:23:42.450, 5
50, 10.10, 0.00, 16.44, 12.17, 0.000, 0.000, 0.000, 09:23:42.450, 5
51, 8.03, 0.00, 16.63, 17.00, 0.000, 0.000, 0.000, 09:23:42.464, 5
52, 17.01, 0.00, 18.70, 20.08, 0.000, 0.000, 0.000, 09:23:42.464, 5
53, 14.72, 0.00, 18.94, 16.24, 0.000, 0.000, 0.000, 09:23:42.466, 5
54, 12.19, 0.00, 16.85, 13.59, 0.000, 0.000, 0.000, 09:23:42.467, 5
55, 13.20, 0.00, 16.24, 14.46, 0.000, 0.000, 0.000, 09:23:42.480, 5
56, 16.89, 0.00, 18.79, 15.12, 0.000, 0.000, 0.000, 09:23:42.481, 5
57, 21.82, 0.00, 23.29, 21.73, 0.000, 0.000, 0.000, 09:23:42.494, 5
58, 14.49, 0.00, 12.23, 13.59, 0.000, 0.000, 0.000, 09:23:42.495, 5
59, 9.13, 0.00, 11.25, 11.46, 0.000, 0.000, 0.000, 09:23:42.495, 5
60, 15.04, 0.00, 16.66, 14.60, 0.000, 0.000, 0.000, 09:23:42.495, 5
61, 18.20, 0.00, 18.95, 16.77, 0.000, 0.000, 0.000, 09:23:42.509, 5
62, 11.57, 0.00, 8.58, 10.53, 0.000, 0.000, 0.000, 09:23:42.510, 5
63, 13.09, 0.00, 17.62, 14.22, 0.000, 0.000, 0.000, 09:23:42.524, 5
64, 12.05, 0.00, 21.20, 21.11, 0.000, 0.000, 0.000, 09:23:42.525, 5
65, 16.70, 0.00, 18.51, 16.44, 0.000, 0.000, 0.000, 09:23:42.525, 5
66, 15.81, 0.00, 14.66, 12.34, 0.000, 0.000, 0.000, 09:23:42.525, 5
67, 13.47, 0.00, 13.91, 15.95, 0.000, 0.000, 0.000, 09:23:42.539, 5
68, 14.33, 0.00, 15.66, 19.15, 0.000, 0.000, 0.000, 09:23:42.540, 5
69, 18.45, 0.00, 17.08, 16.89, 0.000, 0.000, 0.000, 09:23:42.556, 5
70, 12.03, 0.00, 16.87, 14.38, 0.000, 0.000, 0.000, 09:23:42.556, 5
71, 12.23, 0.00, 12.49, 9.48, 0.000, 0.000, 0.000, 09:23:42.557, 5
72, 12.92, 0.00, 20.65, 19.90, 0.000, 0.000, 0.000, 09:23:42.557, 5
73, 17.01, 0.00, 22.51, 23.51, 0.000, 0.000, 0.000, 09:23:42.584, 5
74, 10.63, 0.00, 11.11, 12.30, 0.000, 0.000, 0.000, 09:23:42.585, 5
75, 14.83, 0.00, 14.02, 13.09, 0.000, 0.000, 0.000, 09:23:42.586, 5
76, 18.01, 0.00, 21.60, 14.57, 0.000, 0.000, 0.000, 09:23:42.586, 5
77, 13.29, 0.00, 17.25, 15.41, 0.000, 0.000, 0.000, 09:23:42.587, 5
78, 12.41, 0.00, 15.49, 15.13, 0.000, 0.000, 0.000, 09:23:42.587, 5
79, 14.28, 0.00, 12.10, 12.91, 0.000, 0.000, 0.000, 09:23:42.599, 5
80, 13.98, 0.00, 16.80, 13.77, 0.000, 0.000, 0.000, 09:23:42.600, 5
81, 18.10, 0.00, 24.22, 25.22, 0.000, 0.000, 0.000, 09:23:42.629, 5
82, 12.42, 0.00, 16.32, 18.74, 0.000, 0.000, 0.000, 09:23:42.630, 5
83, 11.47, 0.00, 15.66, 10.86, 0.000, 0.000, 0.000, 09:23:42.630, 5
84, 17.87, 0.00, 19.12, 15.70, 0.000, 0.000, 0.000, 09:23:42.630, 5
85, 15.98, 0.00, 21.51, 21.27, 0.000, 0.000, 0.000, 09:23:42.631, 5
86, 11.67, 0.00, 17.10, 12.50, 0.000, 0.000, 0.000, 09:23:42.631, 5
87, 11.89, 0.00, 14.55, 11.81, 0.000, 0.000, 0.000, 09:23:42.631, 5
88, 22.20, 0.00, 20.70, 22.94, 0.000, 0.000, 0.000, 09:23:42.632, 5
89, 15.32, 0.00, 17.28, 16.95, 0.000, 0.000, 0.000, 09:23:42.645, 5
90, 13.88, 0.00, 19.88, 19.27, 0.000, 0.000, 0.000, 09:23:42.645, 5
91, 15.77, 0.00, 18.19, 17.30, 0.000, 0.000, 0.000, 09:23:42.661, 5
92, 12.90, 0.00, 20.80, 13.31, 0.000, 0.000, 0.000, 09:23:42.661, 5
93, 18.84, 0.00, 19.92, 15.94, 0.000, 0.000, 0.000, 09:23:42.675, 5
94, 11.57, 0.00, 14.20, 16.42, 0.000, 0.000, 0.000, 09:23:42.675, 5
95, 11.05, 0.00, 12.90, 10.31, 0.000, 0.000, 0.000, 09:23:42.676, 5
96, 14.51, 0.00, 22.51, 19.45, 0.000, 0.000, 0.000, 09:23:42.676, 5
97, 14.37, 0.00, 23.08, 17.43, 0.000, 0.000, 0.000, 09:23:42.705, 5
98, 15.85, 0.00, 11.99, 12.63, 0.000, 0.000, 0.000, 09:23:42.706, 5
99, 19.43, 0.00, 13.92, 15.97, 0.000, 0.000, 0.000, 09:23:42.706, 5
100, 21.02, 0.00, 21.45, 18.31, 0.000, 0.000, 0.000, 09:23:42.707, 5
101, 14.53, 0.00, 18.51, 18.39, 0.000, 0.000, 0.000, 09:23:42.708, 5
102, 18.42, 0.00, 15.42, 17.28, 0.000, 0.000, 0.000, 09:23:42.708, 5
103, 13.98, 0.00, 14.64, 8.59, 0.000, 0.000, 0.000, 09:23:42.719, 5
104, 14.51, 0.00, 18.19, 14.83, 0.000, 0.000, 0.000, 09:23:42.721, 5
105, 16.81, 0.00, 21.21, 23.87, 0.000, 0.000, 0.000, 09:23:42.734, 5
106, 13.10, 0.00, 16.10, 15.94, 0.000, 0.000, 0.000, 09:23:42.735, 5
107, 10.24, 0.00, 11.17, 11.49, 0.000, 0.000, 0.000, 09:23:42.744, 5
108, 16.42, 0.00, 21.75, 23.42, 0.000, 0.000, 0.000, 09:23:42.744, 5
109, 20.55, 0.00, 17.06, 24.46, 0.000, 0.000, 0.000, 09:23:42.749, 5
110, 12.67, 0.00, 10.24, 12.19, 0.000, 0.000, 0.000, 09:23:42.749, 5
111, 14.16, 0.00, 15.82, 16.38, 0.000, 0.000, 0.000, 09:23:42.764, 5
112, 15.08, 0.00, 15.47, 17.24, 0.000, 0.000, 0.000, 09:23:42.764, 5
113, 15.37, 0.00, 14.14, 17.66, 0.000, 0.000, 0.000, 09:23:42.765, 5
114, 12.55, 0.00, 11.24, 16.46, 0.000, 0.000, 0.000, 09:23:42.766, 5
115, 13.55, 0.00, 18.35, 15.23, 0.000, 0.000, 0.000, 09:23:42.779, 5
116, 18.30, 0.00, 22.41, 18.30, 0.000, 0.000, 0.000, 09:23:42.780, 5
117, 15.45, 0.00, 23.87, 20.02, 0.000, 0.000, 0.000, 09:23:42.794, 5
118, 10.60, 0.00, 13.02, 12.44, 0.000, 0.000, 0.000, 09:23:42.795, 5
119, 12.39, 0.00, 11.36, 9.48, 0.000, 0.000, 0.000, 09:23:42.795, 5
120, 17.90, 0.00, 19.19, 20.81, 0.000, 0.000, 0.000, 09:23:42.795, 5
121, 18.10, 0.00, 22.30, 16.98, 0.000, 0.000, 0.000, 09:23:42.809, 5
122, 14.88, 0.00, 15.29, 12.43, 0.000, 0.000, 0.000, 09:23:42.810, 5
123, 14.32, 0.00, 13.93, 12.16, 0.000, 0.000, 0.000, 09:23:42.824, 5
124, 16.16, 0.00, 22.56, 19.20, 0.000, 0.000, 0.000, 09:23:42.824, 5
125, 19.09, 0.00, 21.00, 18.70, 0.000, 0.000, 0.000, 09:23:42.825, 5
126, 11.31, 0.00, 15.84, 7.54, 0.000, 0.000, 0.000, 09:23:42.825, 5
127, 15.90, 0.00, 15.87, 14.90, 0.000, 0.000, 0.000, 09:23:42.840, 5
128, 17.16, 0.00, 21.18, 15.85, 0.000, 0.000, 0.000, 09:23:42.840, 5
129, 11.07, 0.00, 17.79, 18.59, 0.000, 0.000, 0.000, 09:23:42.856, 5
130, 6.21, 0.00, 13.16, 15.68, 0.000, 0.000, 0.000, 09:23:42.857, 5
131, 9.65, 0.00, 5.81, 10.43, 0.000, 0.000, 0.000, 09:23:42.858, 5
132, 17.89, 0.00, 20.18, 20.60, 0.000, 0.000, 0.000, 09:23:42.858, 5
133, 14.13, 0.00, 24.28, 17.98, 0.000, 0.000, 0.000, 09:23:42.885, 5
134, 13.17, 0.00, 12.81, 11.17, 0.000, 0.000, 0.000, 09:23:42.885, 5
135, 14.54, 0.00, 18.53, 17.34, 0.000, 0.000, 0.000, 09:23:42.886, 5
136, 16.04, 0.00, 23.86, 21.83, 0.000, 0.000, 0.000, 09:23:42.886, 5
137, 15.91, 0.00, 21.15, 18.71, 0.000, 0.000, 0.000, 09:23:42.887, 5
138, 12.89, 0.00, 14.47, 11.01, 0.000, 0.000, 0.000, 09:23:42.888, 5
139, 11.06, 0.00, 17.09, 13.34, 0.000, 0.000, 0.000, 09:23:42.900, 5
140, 15.28, 0.00, 18.12, 15.89, 0.000, 0.000, 0.000, 09:23:42.901, 5
141, 19.02, 0.00, 22.67, 22.09, 0.000, 0.000, 0.000, 09:23:42.915, 5
142, 15.18, 0.00, 14.12, 15.55, 0.000, 0.000, 0.000, 09:23:42.916, 5
143, 13.01, 0.00, 10.80, 11.97, 0.000, 0.000, 0.000, 09:23:42.929, 5
144, 17.47, 0.00, 18.20, 22.74, 0.000, 0.000, 0.000, 09:23:42.929, 5
145, 13.98, 0.00, 16.39, 19.55, 0.000, 0.000, 0.000, 09:23:42.930, 5
146, 11.21, 0.00, 12.00, 11.60, 0.000, 0.000, 0.000, 09:23:42.930, 5
147, 12.55, 0.00, 17.80, 14.06, 0.000, 0.000, 0.000, 09:23:42.944, 5
148, 13.72, 0.00, 20.61, 19.51, 0.000, 0.000, 0.000, 09:23:42.944, 5
149, 15.73, 0.00, 15.16, 13.86, 0.000, 0.000, 0.000, 09:23:42.945, 5
150, 13.66, 0.00, 14.72, 16.89, 0.000, 0.000, 0.000, 09:23:42.945, 5
151, 13.74, 0.00, 17.19, 13.61, 0.000, 0.000, 0.000, 09:23:42.975, 5
152, 14.36, 0.00, 14.36, 15.99, 0.000, 0.000, 0.000, 09:23:42.975, 5
153, 17.12, 0.00, 18.05, 17.44, 0.000, 0.000, 0.000, 09:23:42.975, 5
154, 13.98, 0.00, 14.88, 13.07, 0.000, 0.000, 0.000, 09:23:42.976, 5
155, 10.42, 0.00, 12.83, 10.93, 0.000, 0.000, 0.000, 09:23:42.976, 5
156, 11.77, 0.00, 19.35, 16.10, 0.000, 0.000, 0.000, 09:23:42.976, 5
157, 12.98, 0.00, 18.93, 21.19, 0.000, 0.000, 0.000, 09:23:43.004, 5
158, 14.20, 0.00, 12.13, 10.93, 0.000, 0.000, 0.000, 09:23:43.005, 5
159, 16.72, 0.00, 17.40, 17.42, 0.000, 0.000, 0.000, 09:23:43.005, 5
160, 16.80, 0.00, 21.38, 20.07, 0.000, 0.000, 0.000, 09:23:43.005, 5
161, 15.89, 0.00, 17.90, 17.52, 0.000, 0.000, 0.000, 09:23:43.012, 5
162, 13.30, 0.00, 16.09, 17.59, 0.000, 0.000, 0.000, 09:23:43.012, 5
163, 13.37, 0.00, 17.02, 15.66, 0.000, 0.000, 0.000, 09:23:43.020, 5
164, 13.30, 0.00, 18.18, 13.76, 0.000, 0.000, 0.000, 09:23:43.020, 5
165, 20.35, 0.00, 19.19, 19.34, 0.000, 0.000, 0.000, 09:23:43.035, 5
166, 15.55, 0.00, 14.25, 12.89, 0.000, 0.000, 0.000, 09:23:43.036, 5
167, 16.23, 0.00, 16.97, 13.29, 0.000, 0.000, 0.000, 09:23:43.037, 5
168, 16.64, 0.00, 18.82, 18.49, 0.000, 0.000, 0.000, 09:23:43.037, 5
169, 16.12, 0.00, 18.34, 19.26, 0.000, 0.000, 0.000, 09:23:43.050, 5
170, 11.17, 0.00, 10.85, 7.73, 0.000, 0.000, 0.000, 09:23:43.050, 5
171, 16.75, 0.00, 15.31, 17.13, 0.000, 0.000, 0.000, 09:23:43.064, 5
172, 16.83, 0.00, 22.65, 18.18, 0.000, 0.000, 0.000, 09:23:43.064, 5
173, 16.23, 0.00, 16.68, 18.22, 0.000, 0.000, 0.000, 09:23:43.065, 5
174, 7.41, 0.00, 16.23, 9.05, 0.000, 0.000, 0.000, 09:23:43.066, 5
175, 11.53, 0.00, 19.60, 14.63, 0.000, 0.000, 0.000, 09:23:43.079, 5
176, 16.07, 0.00, 15.81, 17.03, 0.000, 0.000, 0.000, 09:23:43.079, 5
177, 18.01, 0.00, 16.70, 15.97, 0.000, 0.000, 0.000, 09:23:43.094, 5
178, 10.68, 0.00, 14.82, 14.91, 0.000, 0.000, 0.000, 09:23:43.094, 5
179, 9.56, 0.00, 16.72, 11.61, 0.000, 0.000, 0.000, 09:23:43.094, 5
180, 17.37, 0.00, 18.93, 22.48, 0.000, 0.000, 0.000, 09:23:43.095, 5
181, 17.19, 0.00, 17.79, 15.88, 0.000, 0.000, 0.000, 09:23:43.109, 5
182, 8.14, 0.00, 13.21, 8.61, 0.000, 0.000, 0.000, 09:23:43.109, 5
183, 15.53, 0.00, 16.70, 17.38, 0.000, 0.000, 0.000, 09:23:43.139, 5
184, 17.35, 0.00, 18.77, 22.22, 0.000, 0.000, 0.000, 09:23:43.139, 5
185, 15.58, 0.00, 17.71, 17.42, 0.000, 0.000, 0.000, 09:23:43.140, 5
186, 13.03, 0.00, 13.89, 13.42, 0.000, 0.000, 0.000, 09:23:43.140, 5
187, 13.84, 0.00, 17.57, 15.92, 0.000, 0.000, 0.000, 09:23:43.140, 5
188, 18.21, 0.00, 25.92, 15.63, 0.000, 0.000, 0.000, 09:23:43.141, 5
189, 15.12, 0.00, 20.82, 19.40, 0.000, 0.000, 0.000, 09:23:43.141, 5
190, 10.32, 0.00, 14.09, 12.02, 0.000, 0.000, 0.000, 09:23:43.141, 5
191, 10.97, 0.00, 14.49, 15.32, 0.000, 0.000, 0.000, 09:23:43.155, 5
192, 13.65, 0.00, 20.15, 21.04, 0.000, 0.000, 0.000, 09:23:43.155, 5
193, 17.55, 0.00, 22.45, 17.97, 0.000, 0.000, 0.000, 09:23:43.185, 5
194, 12.15, 0.00, 14.62, 12.55, 0.000, 0.000, 0.000, 09:23:43.185, 5
195, 13.09, 0.00, 13.20, 15.51, 0.000, 0.000, 0.000, 09:23:43.186, 5
196, 18.35, 0.00, 19.76, 18.36, 0.000, 0.000, 0.000, 09:23:43.187, 5
197, 15.68, 0.00, 18.40, 16.35, 0.000, 0.000, 0.000, 09:23:43.188, 5
198, 13.28, 0.00, 15.86, 13.43, 0.000, 0.000, 0.000, 09:23:43.189, 5
199, 13.64, 0.00, 16.28, 11.57, 0.000, 0.000, 0.000, 09:23:43.201, 5
200, 15.37, 0.00, 19.48, 17.21, 0.000, 0.000, 0.000, 09:23:43.201, 5
0, 15.89, 0.00, 13.31, 16.63, 0.000, 0.000, 0.000, 09:23:43.202, 5
1, 13.59, 0.00, 14.81, 12.03, 0.000, 0.000, 0.000, 09:23:43.230, 5
2, 13.39, 0.00, 11.25, 7.77, 0.000, 0.000, 0.000, 09:23:43.230, 5
3, 16.35, 0.00, 23.28, 19.92, 0.000, 0.000, 0.000, 09:23:43.231, 5
4, 15.53, 0.00, 19.94, 18.08, 0.000, 0.000, 0.000, 09:23:43.232, 5
5, 13.88, 0.00, 12.25, 12.62, 0.000, 0.000, 0.000, 09:23:43.234, 5
6, 9.25, 0.00, 15.52, 16.05, 0.000, 0.000, 0.000, 09:23:43.234, 5
7, 16.90, 0.00, 22.16, 19.65, 0.000, 0.000, 0.000, 09:23:43.260, 5
8, 13.78, 0.00, 17.29, 13.78, 0.000, 0.000, 0.000, 09:23:43.260, 5
9, 10.50, 0.00, 13.76, 13.30, 0.000, 0.000, 0.000, 09:23:43.260, 5
10, 13.39, 0.00, 15.40, 16.75, 0.000, 0.000, 0.000, 09:23:43.261, 5
11, 16.20, 0.00, 17.41, 19.62, 0.000, 0.000, 0.000, 09:23:43.261, 5
12, 18.45, 0.00, 17.93, 19.58, 0.000, 0.000, 0.000, 09:23:43.261, 5
13, 11.73, 0.00, 14.95, 11.37, 0.000, 0.000, 0.000, 09:23:43.276, 5
14, 13.92, 0.00, 16.06, 12.71, 0.000, 0.000, 0.000, 09:23:43.276, 5
15, 19.41, 0.00, 22.65, 22.13, 0.000, 0.000, 0.000, 09:23:43.291, 5
16, 16.58, 0.00, 21.46, 17.62, 0.000, 0.000, 0.000, 09:23:43.291, 5
17, 13.11, 0.00, 6.68, 10.97, 0.000, 0.000, 0.000, 09:23:43.291, 5
18, 10.23, 0.00, 16.55, 13.71, 0.000, 0.000, 0.000, 09:23:43.291, 5
19, 21.05, 0.00, 23.42, 22.82, 0.000, 0.000, 0.000, 09:23:43.305, 5
20, 15.36, 0.00, 20.40, 16.14, 0.000, 0.000, 0.000, 09:23:43.306, 5
21, 8.73, 0.00, 16.00, 15.83, 0.000, 0.000, 0.000, 09:23:43.321, 5
22, 14.46, 0.00, 15.02, 10.51, 0.000, 0.000, 0.000, 09:23:43.322, 5
23, 17.41, 0.00, 17.00, 17.10, 0.000, 0.000, 0.000, 09:23:43.322, 5
24, 19.79, 0.00, 22.69, 17.44, 0.000, 0.000, 0.000, 09:23:43.322, 5
25, 16.51, 0.00, 15.37, 19.55, 0.000, 0.000, 0.000, 09:23:43.335, 5
26, 11.37, 0.00, 13.47, 14.02, 0.000, 0.000, 0.000, 09:23:43.336, 5
27, 18.73, 0.00, 22.68, 24.46, 0.000, 0.000, 0.000, 09:23:43.349, 5
28, 17.15, 0.00, 15.97, 17.32, 0.000, 0.000, 0.000, 09:23:43.350, 5
29, 9.24, 0.00, 11.18, 12.86, 0.000, 0.000, 0.000, 09:23:43.350, 5
30, 11.09, 0.00, 14.84, 17.93, 0.000, 0.000, 0.000, 09:23:43.350, 5
31, 14.99, 0.00, 20.56, 18.72, 0.000, 0.000, 0.000, 09:23:43.364, 5
32, 11.72, 0.00, 15.38, 14.57, 0.000, 0.000, 0.000, 09:23:43.364, 5
33, 15.83, 0.00, 16.50, 14.12, 0.000, 0.000, 0.000, 09:23:43.379, 5
34, 12.13, 0.00, 18.78, 14.05, 0.000, 0.000, 0.000, 09:23:43.379, 5
35, 14.73, 0.00, 23.26, 17.17, 0.000, 0.000, 0.000, 09:23:43.379, 5
36, 14.35, 0.00, 14.16, 17.47, 0.000, 0.000, 0.000, 09:23:43.379, 5
37, 10.48, 0.00, 10.12, 12.52, 0.000, 0.000, 0.000, 09:23:43.394, 5
38, 13.69, 0.00, 11.78, 13.21, 0.000, 0.000, 0.000, 09:23:43.394, 5
39, 20.40, 0.00, 21.91, 21.31, 0.000, 0.000, 0.000, 09:23:43.409, 5
40, 17.76, 0.00, 20.58, 15.99, 0.000, 0.000, 0.000, 09:23:43.409, 5
41, 14.90, 0.00, 12.82, 9.46, 0.000, 0.000, 0.000, 09:23:43.409, 5
42, 14.11, 0.00, 17.90, 17.19, 0.000, 0.000, 0.000, 09:23:43.409, 5
43, 15.77, 0.00, 22.73, 20.90, 0.000, 0.000, 0.000, 09:23:43.439, 5
44, 15.47, 0.00, 11.11, 13.64, 0.000, 0.000, 0.000, 09:23:43.439, 5
45, 12.40, 0.00, 13.60, 12.24, 0.000, 0.000, 0.000, 09:23:43.439, 5
46, 13.66, 0.00, 19.31, 14.48, 0.000, 0.000, 0.000, 09:23:43.439, 5
47, 15.95, 0.00, 23.02, 15.90, 0.000, 0.000, 0.000, 09:23:43.440, 5
48, 16.62, 0.00, 17.77, 15.83, 0.000, 0.000, 0.000, 09:23:43.440, 5
49, 11.53, 0.00, 14.49, 16.19, 0.000, 0.000, 0.000, 09:23:43.454, 5
50, 11.83, 0.00, 15.31, 15.36, 0.000, 0.000, 0.000, 09:23:43.454, 5
51, 17.93, 0.00, 24.42, 24.03, 0.000, 0.000, 0.000, 09:23:43.485, 5
52, 19.97, 0.00, 20.85, 17.54, 0.000, 0.000, 0.000, 09:23:43.486, 5
53, 13.04, 0.00, 11.49, 14.97, 0.000, 0.000, 0.000, 09:23:43.486, 5
54, 12.83, 0.00, 12.50, 12.39, 0.000, 0.000, 0.000, 09:23:43.486, 5
55, 16.05, 0.00, 21.48, 21.27, 0.000, 0.000, 0.000, 09:23:43.487, 5
56, 14.33, 0.00, 20.63, 19.05, 0.000, 0.000, 0.000, 09:23:43.487, 5
57, 13.48, 0.00, 14.10, 16.42, 0.000, 0.000, 0.000, 09:23:43.487, 5
58, 13.85, 0.00, 15.77, 20.21, 0.000, 0.000, 0.000, 09:23:43.487, 5
59, 17.27, 0.00, 18.11, 19.87, 0.000, 0.000, 0.000, 09:23:43.499, 5
60, 17.65, 0.00, 21.51, 19.49, 0.000, 0.000, 0.000, 09:23:43.499, 5
61, 10.90, 0.00, 16.38, 11.89, 0.000, 0.000, 0.000, 09:23:43.530, 5
62, 13.86, 0.00, 14.38, 10.98, 0.000, 0.000, 0.000, 09:23:43.530, 5
63, 18.04, 0.00, 19.95, 18.81, 0.000, 0.000, 0.000, 09:23:43.531, 5
64, 14.82, 0.00, 18.68, 18.33, 0.000, 0.000, 0.000, 09:23:43.531, 5
65, 8.08, 0.00, 8.76, 8.22, 0.000, 0.000, 0.000, 09:23:43.531, 5
66, 11.79, 0.00, 18.45, 11.93, 0.000, 0.000, 0.000, 09:23:43.531, 5
67, 16.75, 0.00, 25.20, 22.50, 0.000, 0.000, 0.000, 09:23:43.559, 5
68, 15.12, 0.00, 11.83, 12.16, 0.000, 0.000, 0.000, 09:23:43.559, 5
69, 10.12, 0.00, 12.21, 9.18, 0.000, 0.000, 0.000, 09:23:43.560, 5
70, 18.17, 0.00, 16.47, 16.68, 0.000, 0.000, 0.000, 09:23:43.560, 5
71, 19.18, 0.00, 21.55, 18.87, 0.000, 0.000, 0.000, 09:23:43.561, 5
72, 13.25, 0.00, 19.08, 19.15, 0.000, 0.000, 0.000, 09:23:43.561, 5
73, 11.65, 0.00, 15.43, 12.20, 0.000, 0.000, 0.000, 09:23:43.574, 5
74, 18.97, 0.00, 15.26, 10.55, 0.000, 0.000, 0.000, 09:23:43.575, 5
75, 16.68, 0.00, 26.64, 22.64, 0.000, 0.000, 0.000, 09:23:43.589, 5
76, 14.16, 0.00, 19.59, 15.93, 0.000, 0.000, 0.000, 09:23:43.589, 5
77, 9.19, 0.00, 6.05, 11.71, 0.000, 0.000, 0.000, 09:23:43.590, 5
78, 16.39, 0.00, 17.52, 17.56, 0.000, 0.000, 0.000, 09:23:43.590, 5
79, 19.17, 0.00, 22.76, 23.48, 0.000, 0.000, 0.000, 09:23:43.604, 5
80, 9.50, 0.00, 15.29, 14.35, 0.000, 0.000, 0.000, 09:23:43.604, 5
81, 9.88, 0.00, 15.14, 15.45, 0.000, 0.000, 0.000, 09:23:43.620, 5
82, 12.12, 0.00, 17.76, 16.83, 0.000, 0.000, 0.000, 09:23:43.620, 5
83, 17.18, 0.00, 19.90, 19.03, 0.000, 0.000, 0.000, 09:23:43.620, 5
84, 13.93, 0.00, 19.34, 18.33, 0.000, 0.000, 0.000, 09:23:43.620, 5
85, 11.52, 0.00, 18.14, 15.40, 0.000, 0.000, 0.000, 09:23:43.635, 5
86, 11.78, 0.00, 12.70, 11.61, 0.000, 0.000, 0.000, 09:23:43.636, 5
87, 18.33, 0.00, 21.15, 26.03, 0.000, 0.000, 0.000, 09:23:43.650, 5
88, 15.63, 0.00, 14.07, 15.19, 0.000, 0.000, 0.000, 09:23:43.650, 5
89, 9.84, 0.00, 11.09, 4.87, 0.000, 0.000, 0.000, 09:23:43.651, 5
90, 17.00, 0.00, 14.79, 13.33, 0.000, 0.000, 0.000, 09:23:43.652, 5
91, 21.97, 0.00, 24.30, 21.92, 0.000, 0.000, 0.000, 09:23:43.665, 5
92, 17.23, 0.00, 20.43, 17.84, 0.000, 0.000, 0.000, 09:23:43.665, 5
93, 15.01, 0.00, 13.89, 14.23, 0.000, 0.000, 0.000, 09:23:43.680, 5
94, 12.41, 0.00, 19.60, 17.64, 0.000, 0.000, 0.000, 09:23:43.680, 5
95, 15.58, 0.00, 17.50, 13.96, 0.000, 0.000, 0.000, 09:23:43.694, 5
96, 16.02, 0.00, 17.56, 17.91, 0.000, 0.000, 0.000, 09:23:43.694, 5
97, 11.70, 0.00, 14.01, 9.21, 0.000, 0.000, 0.000, 09:23:43.694, 5
98, 14.51, 0.00, 15.07, 13.27, 0.000, 0.000, 0.000, 09:23:43.695, 5
99, 16.40, 0.00, 20.06, 21.78, 0.000, 0.000, 0.000, 09:23:43.709, 5
100, 13.23, 0.00, 16.09, 17.50, 0.000, 0.000, 0.000, 09:23:43.709, 5
101, 11.48, 0.00, 9.69, 9.82, 0.000, 0.000, 0.000, 09:23:43.709, 5
102, 15.46, 0.00, 15.06, 16.51, 0.000, 0.000, 0.000, 09:23:43.710, 5
103, 16.48, 0.00, 22.32, 18.05, 0.000, 0.000, 0.000, 09:23:43.739, 5
104, 14.36, 0.00, 17.83, 13.64, 0.000, 0.000, 0.000, 09:23:43.739, 5
105, 13.26, 0.00, 12.50, 16.13, 0.000, 0.000, 0.000, 09:23:43.744, 5
106, 15.61, 0.00, 18.28, 19.19, 0.000, 0.000, 0.000, 09:23:43.744, 5
107, 16.32, 0.00, 18.07, 22.20, 0.000, 0.000, 0.000, 09:23:43.744, 5
108, 14.76, 0.00, 15.26, 19.47, 0.000, 0.000, 0.000, 09:23:43.744, 5
109, 8.33, 0.00, 13.87, 9.26, 0.000, 0.000, 0.000, 09:23:43.754, 5
110, 14.84, 0.00, 18.26, 14.88, 0.000, 0.000, 0.000, 09:23:43.754, 5
111, 19.16, 0.00, 22.41, 25.08, 0.000, 0.000, 0.000, 09:23:43.772, 5
112, 15.82, 0.00, 18.54, 16.66, 0.000, 0.000, 0.000, 09:23:43.772, 5
113, 6.93, 0.00, 12.08, 8.12, 0.000, 0.000, 0.000, 09:23:43.776, 5
114, 13.80, 0.00, 18.77, 14.68, 0.000, 0.000, 0.000, 09:23:43.776, 5
115, 20.87, 0.00, 22.01, 20.21, 0.000, 0.000, 0.000, 09:23:43.784, 5
116, 13.30, 0.00, 15.68, 12.40, 0.000, 0.000, 0.000, 09:23:43.785, 5
117, 14.44, 0.00, 16.49, 13.94, 0.000, 0.000, 0.000, 09:23:43.799, 5
118, 16.37, 0.00, 19.86, 17.88, 0.000, 0.000, 0.000, 09:23:43.799, 5
119, 17.82, 0.00, 20.50, 21.72, 0.000, 0.000, 0.000, 09:23:43.800, 5
120, 13.43, 0.00, 18.18, 17.66, 0.000, 0.000, 0.000, 09:23:43.801, 5
121, 12.75, 0.00, 12.49, 14.34, 0.000, 0.000, 0.000, 09:23:43.814, 5
122, 11.08, 0.00, 14.49, 9.45, 0.000, 0.000, 0.000, 09:23:43.815, 5
123, 16.53, 0.00, 25.30, 22.02, 0.000, 0.000, 0.000, 09:23:43.829, 5
124, 17.38, 0.00, 17.47, 17.70, 0.000, 0.000, 0.000, 09:23:43.829, 5
125, 12.34, 0.00, 10.57, 11.60, 0.000, 0.000, 0.000, 09:23:43.829, 5
126, 16.52, 0.00, 20.98, 19.06, 0.000, 0.000, 0.000, 09:23:43.829, 5
127, 16.48, 0.00, 22.68, 20.33, 0.000, 0.000, 0.000, 09:23:43.844, 5
128, 12.27, 0.00, 13.28, 9.42, 0.000, 0.000, 0.000, 09:23:43.844, 5
129, 13.09, 0.00, 17.33, 12.03, 0.000, 0.000, 0.000, 09:23:43.859, 5
130, 14.61, 0.00, 18.26, 16.28, 0.000, 0.000, 0.000, 09:23:43.859, 5
131, 16.16, 0.00, 18.09, 15.66, 0.000, 0.000, 0.000, 09:23:43.859, 5
132, 13.91, 0.00, 15.02, 14.53, 0.000, 0.000, 0.000, 09:23:43.860, 5
133, 8.41, 0.00, 15.69, 11.97, 0.000, 0.000, 0.000, 09:23:43.874, 5
134, 16.37, 0.00, 14.25, 13.89, 0.000, 0.000, 0.000, 09:23:43.874, 5
135, 17.16, 0.00, 22.74, 23.98, 0.000, 0.000, 0.000, 09:23:43.888, 5
136, 14.19, 0.00, 18.07, 16.09, 0.000, 0.000, 0.000, 09:23:43.889, 5
137, 12.87, 0.00, 11.19, 15.55, 0.000, 0.000, 0.000, 09:23:43.889, 5
138, 16.14, 0.00, 17.24, 19.12, 0.000, 0.000, 0.000, 09:23:43.889, 5
139, 16.81, 0.00, 19.28, 21.24, 0.000, 0.000, 0.000, 09:23:43.905, 5
140, 12.56, 0.00, 13.32, 13.98, 0.000, 0.000, 0.000, 09:23:43.905, 5
141, 9.60, 0.00, 15.50, 9.34, 0.000, 0.000, 0.000, 09:23:43.920, 5
142, 14.68, 0.00, 16.04, 13.17, 0.000, 0.000, 0.000, 09:23:43.920, 5
143, 16.62, 0.00, 20.23, 20.59, 0.000, 0.000, 0.000, 09:23:43.920, 5
144, 14.62, 0.00, 20.22, 15.21, 0.000, 0.000, 0.000, 09:23:43.920, 5
145, 9.96, 0.00, 13.08, 13.07, 0.000, 0.000, 0.000, 09:23:43.935, 5
146, 13.39, 0.00, 17.15, 10.86, 0.000, 0.000, 0.000, 09:23:43.935, 5
147, 18.91, 0.00, 24.76, 24.96, 0.000, 0.000, 0.000, 09:23:43.950, 5
148, 13.57, 0.00, 19.75, 16.26, 0.000, 0.000, 0.000, 09:23:43.950, 5
149, 14.80, 0.00, 11.18, 14.51, 0.000, 0.000, 0.000, 09:23:43.951, 5
150, 14.29, 0.00, 15.89, 20.81, 0.000, 0.000, 0.000, 09:23:43.951, 5
151, 17.01, 0.00, 19.44, 23.24, 0.000, 0.000, 0.000, 09:23:43.965, 5
152, 13.58, 0.00, 15.56, 14.07, 0.000, 0.000, 0.000, 09:23:43.965, 5
153, 13.30, 0.00, 12.92, 14.48, 0.000, 0.000, 0.000, 09:23:43.995, 5
154, 18.53, 0.00, 21.54, 18.48, 0.000, 0.000, 0.000, 09:23:43.995, 5
155, 20.71, 0.00, 19.31, 19.69, 0.000, 0.000, 0.000, 09:23:43.995, 5
156, 13.04, 0.00, 15.88, 15.92, 0.000, 0.000, 0.000, 09:23:43.996, 5
157, 15.21, 0.00, 12.82, 10.24, 0.000, 0.000, 0.000, 09:23:43.996, 5
158, 16.19, 0.00, 15.27, 15.17, 0.000, 0.000, 0.000, 09:23:43.996, 5
159, 16.73, 0.00, 22.41, 21.35, 0.000, 0.000, 0.000, 09:23:44.002, 5
160, 12.96, 0.00, 16.33, 13.28, 0.000, 0.000, 0.000, 09:23:44.002, 5
161, 11.88, 0.00, 14.75, 8.86, 0.000, 0.000, 0.000, 09:23:44.009, 5
162, 14.99, 0.00, 16.69, 18.07, 0.000, 0.000, 0.000, 09:23:44.009, 5
163, 19.28, 0.00, 24.95, 20.10, 0.000, 0.000, 0.000, 09:23:44.040, 5
164, 12.49, 0.00, 12.88, 12.59, 0.000, 0.000, 0.000, 09:23:44.040, 5
165, 12.50, 0.00, 11.49, 12.52, 0.000, 0.000, 0.000, 09:23:44.040, 5
166, 14.22, 0.00, 17.58, 16.56, 0.000, 0.000, 0.000, 09:23:44.041, 5
167, 14.31, 0.00, 19.52, 15.23, 0.000, 0.000, 0.000, 09:23:44.041, 5
168, 15.16, 0.00, 19.77, 18.00, 0.000, 0.000, 0.000, 09:23:44.041, 5
169, 17.91, 0.00, 15.22, 14.62, 0.000, 0.000, 0.000, 09:23:44.054, 5
170, 13.39, 0.00, 14.79, 13.98, 0.000, 0.000, 0.000, 09:23:44.054, 5
171, 17.84, 0.00, 18.95, 19.69, 0.000, 0.000, 0.000, 09:23:44.087, 5
172, 13.84, 0.00, 17.60, 14.60, 0.000, 0.000, 0.000, 09:23:44.088, 5
173, 8.19, 0.00, 9.76, 8.99, 0.000, 0.000, 0.000, 09:23:44.088, 5
174, 13.29, 0.00, 19.22, 18.83, 0.000, 0.000, 0.000, 09:23:44.088, 5
175, 19.28, 0.00, 24.31, 22.03, 0.000, 0.000, 0.000, 09:23:44.088, 5
176, 15.04, 0.00, 13.43, 14.74, 0.000, 0.000, 0.000, 09:23:44.088, 5
177, 12.29, 0.00, 9.52, 13.52, 0.000, 0.000, 0.000, 09:23:44.088, 5
178, 13.06, 0.00, 19.46, 20.00, 0.000, 0.000, 0.000, 09:23:44.089, 5
179, 15.16, 0.00, 20.57, 17.92, 0.000, 0.000, 0.000, 09:23:44.102, 5
180, 13.35, 0.00, 18.79, 15.70, 0.000, 0.000, 0.000, 09:23:44.103, 5
181, 9.34, 0.00, 13.55, 13.06, 0.000, 0.000, 0.000, 09:23:44.114, 5
182, 16.16, 0.00, 17.07, 12.93, 0.000, 0.000, 0.000, 09:23:44.114, 5
183, 18.99, 0.00, 19.70, 20.46, 0.000, 0.000, 0.000, 09:23:44.129, 5
184, 16.55, 0.00, 17.13, 12.56, 0.000, 0.000, 0.000, 09:23:44.129, 5
185, 7.90, 0.00, 12.64, 10.56, 0.000, 0.000, 0.000, 09:23:44.129, 5
186, 13.37, 0.00, 21.70, 18.85, 0.000, 0.000, 0.000, 09:23:44.129, 5
187, 19.18, 0.00, 24.05, 17.86, 0.000, 0.000, 0.000, 09:23:44.144, 5
188, 15.38, 0.00, 15.51, 14.08, 0.000, 0.000, 0.000, 09:23:44.144, 5
189, 10.29, 0.00, 11.63, 14.36, 0.000, 0.000, 0.000, 09:23:44.159, 5
190, 15.86, 0.00, 20.11, 16.32, 0.000, 0.000, 0.000, 09:23:44.159, 5
191, 16.17, 0.00, 22.51, 20.57, 0.000, 0.000, 0.000, 09:23:44.159, 5
192, 13.78, 0.00, 9.99, 15.63, 0.000, 0.000, 0.000, 09:23:44.159, 5
193, 12.54, 0.00, 11.73, 14.70, 0.000, 0.000, 0.000, 09:23:44.174, 5
194, 15.88, 0.00, 19.75, 17.77, 0.000, 0.000, 0.000, 09:23:44.174, 5
195, 20.23, 0.00, 20.35, 20.88, 0.000, 0.000, 0.000, 09:23:44.189, 5
196, 15.61, 0.00, 18.95, 15.74, 0.000, 0.000, 0.000, 09:23:44.189, 5
197, 10.66, 0.00, 14.02, 10.55, 0.000, 0.000, 0.000, 09:23:44.189, 5
198, 11.43, 0.00, 20.33, 16.68, 0.000, 0.000, 0.000, 09:23:44.189, 5
199, 19.92, 0.00, 21.96, 19.14, 0.000, 0.000, 0.000, 09:23:44.204, 5
200, 11.91, 0.00, 14.77, 14.02, 0.000, 0.000, 0.000, 09:23:44.204, 5
0, 15.46, 0.00, 15.57, 16.59, 0.000, 0.000, 0.000, 09:23:44.204, 5
1, 14.84, 0.00, 19.75, 20.70, 0.000, 0.000, 0.000, 09:23:44.219, 5
2, 15.69, 0.00, 20.45, 16.50, 0.000, 0.000, 0.000, 09:23:44.219, 5
3, 16.50, 0.00, 17.62, 17.85, 0.000, 0.000, 0.000, 09:23:44.249, 5
4, 11.94, 0.00, 11.88, 14.43, 0.000, 0.000, 0.000, 09:23:44.249, 5
5, 13.77, 0.00, 15.57, 18.31, 0.000, 0.000, 0.000, 09:23:44.250, 5
6, 17.52, 0.00, 20.03, 20.36, 0.000, 0.000, 0.000, 09:23:44.250, 5
7, 13.68, 0.00, 18.25, 15.70, 0.000, 0.000, 0.000, 09:23:44.253, 5
8, 13.74, 0.00, 11.10, 8.66, 0.000, 0.000, 0.000, 09:23:44.253, 5
9, 16.31, 0.00, 18.44, 18.76, 0.000, 0.000, 0.000, 09:23:44.258, 5
10, 18.76, 0.00, 21.00, 22.98, 0.000, 0.000, 0.000, 09:23:44.258, 5
11, 10.14, 0.00, 12.72, 13.94, 0.000, 0.000, 0.000, 09:23:44.265, 5
12, 11.74, 0.00, 16.11, 13.42, 0.000, 0.000, 0.000, 09:23:44.265, 5
13, 12.12, 0.00, 19.02, 17.66, 0.000, 0.000, 0.000, 09:23:44.280, 5
14, 15.45, 0.00, 22.04, 17.04, 0.000, 0.000, 0.000, 09:23:44.280, 5
15, 16.29, 0.00, 16.33, 18.37, 0.000, 0.000, 0.000, 09:23:44.295, 5
16, 7.49, 0.00, 10.41, 11.62, 0.000, 0.000, 0.000, 09:23:44.295, 5
17, 12.18, 0.00, 16.87, 11.74, 0.000, 0.000, 0.000, 09:23:44.295, 5
18, 14.55, 0.00, 19.83, 16.33, 0.000, 0.000, 0.000, 09:23:44.295, 5
19, 14.57, 0.00, 18.13, 13.87, 0.000, 0.000, 0.000, 09:23:44.310, 5
20, 11.10, 0.00, 10.42, 10.69, 0.000, 0.000, 0.000, 09:23:44.310, 5
21, 20.69, 0.00, 20.12, 21.61, 0.000, 0.000, 0.000, 09:23:44.324, 5
22, 19.61, 0.00, 21.09, 20.76, 0.000, 0.000, 0.000, 09:23:44.325, 5
23, 8.41, 0.00, 10.79, 10.55, 0.000, 0.000, 0.000, 09:23:44.340, 5
24, 15.21, 0.00, 17.83, 15.17, 0.000, 0.000, 0.000, 09:23:44.341, 5
25, 20.84, 0.00, 19.89, 17.11, 0.000, 0.000, 0.000, 09:23:44.341, 5
26, 18.84, 0.00, 19.92, 17.33, 0.000, 0.000, 0.000, 09:23:44.341, 5
27, 12.01, 0.00, 14.12, 14.58, 0.000, 0.000, 0.000, 09:23:44.357, 5
28, 11.33, 0.00, 14.08, 11.09, 0.000, 0.000, 0.000, 09:23:44.357, 5
29, 13.30, 0.00, 16.54, 15.74, 0.000, 0.000, 0.000, 09:23:44.371, 5
30, 19.50, 0.00, 24.67, 22.39, 0.000, 0.000, 0.000, 09:23:44.372, 5
31, 17.46, 0.00, 16.21, 15.36, 0.000, 0.000, 0.000, 09:23:44.373, 5
32, 10.15, 0.00, 12.78, 11.88, 0.000, 0.000, 0.000, 09:23:44.374, 5
33, 16.49, 0.00, 22.93, 18.71, 0.000, 0.000, 0.000, 09:23:44.385, 5
34, 17.82, 0.00, 22.24, 22.09, 0.000, 0.000, 0.000, 09:23:44.386, 5
35, 13.63, 0.00, 16.69, 15.35, 0.000, 0.000, 0.000, 09:23:44.387, 5
36, 12.57, 0.00, 15.76, 13.12, 0.000, 0.000, 0.000, 09:23:44.388, 5
37, 14.87, 0.00, 14.88, 13.11, 0.000, 0.000, 0.000, 09:23:44.401, 5
38, 15.28, 0.00, 20.23, 22.31, 0.000, 0.000, 0.000, 09:23:44.401, 5
39, 15.44, 0.00, 14.94, 18.23, 0.000, 0.000, 0.000, 09:23:44.420, 5
40, 10.60, 0.00, 14.42, 9.56, 0.000, 0.000, 0.000, 09:23:44.422, 5
41, 13.66, 0.00, 16.55, 12.94, 0.000, 0.000, 0.000, 09:23:44.424, 5
42, 17.67, 0.00, 19.65, 18.86, 0.000, 0.000, 0.000, 09:23:44.425, 5
43, 17.01, 0.00, 19.53, 16.41, 0.000, 0.000, 0.000, 09:23:44.429, 5
44, 12.06, 0.00, 10.55, 10.42, 0.000, 0.000, 0.000, 09:23:44.430, 5
45, 16.13, 0.00, 20.31, 19.23, 0.000, 0.000, 0.000, 09:23:44.445, 5
46, 13.87, 0.00, 17.67, 21.76, 0.000, 0.000, 0.000, 09:23:44.445, 5
47, 12.77, 0.00, 14.45, 11.69, 0.000, 0.000, 0.000, 09:23:44.445, 5
48, 13.53, 0.00, 10.19, 9.14, 0.000, 0.000, 0.000, 09:23:44.445, 5
49, 17.85, 0.00, 22.48, 20.06, 0.000, 0.000, 0.000, 09:23:44.459, 5
50, 13.81, 0.00, 18.03, 18.58, 0.000, 0.000, 0.000, 09:23:44.460, 5
51, 16.12, 0.00, 17.90, 13.10, 0.000, 0.000, 0.000, 09:23:44.474, 5
52, 11.03, 0.00, 13.04, 14.74, 0.000, 0.000, 0.000, 09:23:44.474, 5
53, 14.20, 0.00, 17.66, 17.64, 0.000, 0.000, 0.000, 09:23:44.475, 5
54, 17.18, 0.00, 21.64, 19.05, 0.000, 0.000, 0.000, 09:23:44.475, 5
55, 14.45, 0.00, 14.94, 17.34, 0.000, 0.000, 0.000, 09:23:44.489, 5
56, 9.49, 0.00, 13.65, 12.17, 0.000, 0.000, 0.000, 09:23:44.490, 5
57, 14.86, 0.00, 22.53, 17.21, 0.000, 0.000, 0.000, 09:23:44.505, 5
58, 18.58, 0.00, 23.79, 22.41, 0.000, 0.000, 0.000, 09:23:44.505, 5
59, 14.01, 0.00, 16.29, 11.39, 0.000, 0.000, 0.000, 09:23:44.505, 5
60, 13.97, 0.00, 15.54, 13.81, 0.000, 0.000, 0.000, 09:23:44.505, 5
61, 17.71, 0.00, 20.72, 17.75, 0.000, 0.000, 0.000, 09:23:44.520, 5
62, 15.18, 0.00, 20.45, 14.29, 0.000, 0.000, 0.000, 09:23:44.521, 5
63, 14.18, 0.00, 13.95, 10.62, 0.000, 0.000, 0.000, 09:23:44.550, 5
64, 10.56, 0.00, 13.49, 14.96, 0.000, 0.000, 0.000, 09:23:44.550, 5
65, 15.90, 0.00, 14.04, 18.73, 0.000, 0.000, 0.000, 09:23:44.550, 5
66, 16.94, 0.00, 21.20, 22.06, 0.000, 0.000, 0.000, 09:23:44.551, 5
67, 12.54, 0.00, 17.12, 17.56, 0.000, 0.000, 0.000, 09:23:44.551, 5
68, 10.22, 0.00, 9.40, 10.43, 0.000, 0.000, 0.000, 09:23:44.551, 5
69, 16.81, 0.00, 17.05, 18.42, 0.000, 0.000, 0.000, 09:23:44.551, 5
70, 14.43, 0.00, 19.74, 19.95, 0.000, 0.000, 0.000, 09:23:44.552, 5
71, 11.89, 0.00, 13.17, 10.64, 0.000, 0.000, 0.000, 09:23:44.564, 5
72, 13.18, 0.00, 12.71, 11.39, 0.000, 0.000, 0.000, 09:23:44.565, 5
73, 16.50, 0.00, 19.04, 15.68, 0.000, 0.000, 0.000, 09:23:44.584, 5
74, 16.78, 0.00, 20.53, 16.20, 0.000, 0.000, 0.000, 09:23:44.584, 5
75, 9.08, 0.00, 17.83, 15.29, 0.000, 0.000, 0.000, 09:23:44.594, 5
76, 11.72, 0.00, 16.28, 11.95, 0.000, 0.000, 0.000, 09:23:44.594, 5
77, 16.52, 0.00, 21.37, 19.22, 0.000, 0.000, 0.000, 09:23:44.597, 5
78, 15.84, 0.00, 23.85, 17.96, 0.000, 0.000, 0.000, 09:23:44.597, 5
79, 17.15, 0.00, 17.40, 13.53, 0.000, 0.000, 0.000, 09:23:44.609, 5
80, 10.95, 0.00, 14.65, 10.75, 0.000, 0.000, 0.000, 09:23:44.609, 5
81, 19.30, 0.00, 17.80, 19.47, 0.000, 0.000, 0.000, 09:23:44.624, 5
82, 19.51, 0.00, 19.48, 25.44, 0.000, 0.000, 0.000, 09:23:44.625, 5
83, 12.82, 0.00, 13.61, 13.60, 0.000, 0.000, 0.000, 09:23:44.625, 5
84, 14.41, 0.00, 18.89, 14.64, 0.000, 0.000, 0.000, 09:23:44.625, 5
85, 15.43, 0.00, 23.05, 16.97, 0.000, 0.000, 0.000, 09:23:44.639, 5
86, 16.23, 0.00, 17.59, 16.84, 0.000, 0.000, 0.000, 09:23:44.639, 5
87, 14.82, 0.00, 14.40, 18.24, 0.000, 0.000, 0.000, 09:23:44.656, 5
88, 10.65, 0.00, 10.58, 13.74, 0.000, 0.000, 0.000, 09:23:44.657, 5
89, 13.67, 0.00, 20.67, 18.68, 0.000, 0.000, 0.000, 09:23:44.657, 5
90, 19.74, 0.00, 18.57, 22.73, 0.000, 0.000, 0.000, 09:23:44.657, 5
91, 14.27, 0.00, 14.32, 12.90, 0.000, 0.000, 0.000, 09:23:44.670, 5
92, 11.16, 0.00, 9.59, 8.61, 0.000, 0.000, 0.000, 09:23:44.671, 5
93, 18.48, 0.00, 19.59, 20.89, 0.000, 0.000, 0.000, 09:23:44.685, 5
94, 19.58, 0.00, 19.97, 22.72, 0.000, 0.000, 0.000, 09:23:44.686, 5
95, 15.19, 0.00, 13.42, 9.39, 0.000, 0.000, 0.000, 09:23:44.686, 5
96, 12.64, 0.00, 17.81, 15.68, 0.000, 0.000, 0.000, 09:23:44.687, 5
97, 14.75, 0.00, 21.53, 22.57, 0.000, 0.000, 0.000, 09:23:44.701, 5
98, 14.97, 0.00, 17.03, 16.78, 0.000, 0.000, 0.000, 09:23:44.702, 5
99, 15.06, 0.00, 17.96, 14.04, 0.000, 0.000, 0.000, 09:23:44.715, 5
100, 13.09, 0.00, 15.02, 11.50, 0.000, 0.000, 0.000, 09:23:44.716, 5
101, 15.96, 0.00, 20.49, 17.44, 0.000, 0.000, 0.000, 09:23:44.717, 5
102, 14.04, 0.00, 16.84, 20.09, 0.000, 0.000, 0.000, 09:23:44.718, 5
103, 10.76, 0.00, 13.34, 14.06, 0.000, 0.000, 0.000, 09:23:44.730, 5
104, 13.08, 0.00, 10.89, 10.95, 0.000, 0.000, 0.000, 09:23:44.731, 5
105, 16.11, 0.00, 20.57, 17.59, 0.000, 0.000, 0.000, 09:23:44.745, 5
106, 16.54, 0.00, 21.56, 18.36, 0.000, 0.000, 0.000, 09:23:44.745, 5
107, 13.00, 0.00, 13.50, 14.57, 0.000, 0.000, 0.000, 09:23:44.746, 5
108, 11.43, 0.00, 12.88, 14.98, 0.000, 0.000, 0.000, 09:23:44.746, 5
109, 16.42, 0.00, 18.50, 19.53, 0.000, 0.000, 0.000, 09:23:44.761, 5
110, 14.02, 0.00, 17.39, 14.58, 0.000, 0.000, 0.000, 09:23:44.761, 5
111, 9.64, 0.00, 13.73, 11.21, 0.000, 0.000, 0.000, 09:23:44.775, 5
112, 15.20, 0.00, 16.91, 15.09, 0.000, 0.000, 0.000, 09:23:44.775, 5
113, 17.98, 0.00, 21.32, 17.36, 0.000, 0.000, 0.000, 09:23:44.776, 5
114, 16.29, 0.00, 22.22, 23.55, 0.000, 0.000, 0.000, 09:23:44.776, 5
115, 15.15, 0.00, 18.42, 13.17, 0.000, 0.000, 0.000, 09:23:44.806, 5
116, 12.23, 0.00, 13.48, 9.46, 0.000, 0.000, 0.000, 09:23:44.806, 5
117, 16.04, 0.00, 21.55, 20.92, 0.000, 0.000, 0.000, 09:23:44.807, 5
118, 17.50, 0.00, 22.60, 21.71, 0.000, 0.000, 0.000, 09:23:44.807, 5
119, 8.38, 0.00, 8.98, 9.56, 0.000, 0.000, 0.000, 09:23:44.808, 5
120, 10.94, 0.00, 14.74, 15.29, 0.000, 0.000, 0.000, 09:23:44.808, 5
121, 19.51, 0.00, 22.06, 24.10, 0.000, 0.000, 0.000, 09:23:44.824, 5
122, 17.37, 0.00, 16.29, 17.45, 0.000, 0.000, 0.000, 09:23:44.825, 5
123, 8.95, 0.00, 16.40, 12.08, 0.000, 0.000, 0.000, 09:23:44.850, 5
124, 11.63, 0.00, 14.73, 13.36, 0.000, 0.000, 0.000, 09:23:44.850, 5
125, 14.50, 0.00, 17.12, 15.40, 0.000, 0.000, 0.000, 09:23:44.851, 5
126, 14.97, 0.00, 20.69, 16.17, 0.000, 0.000, 0.000, 09:23:44.851, 5
127, 12.03, 0.00, 14.38, 14.61, 0.000, 0.000, 0.000, 09:23:44.854, 5
128, 12.44, 0.00, 12.01, 12.46, 0.000, 0.000, 0.000, 09:23:44.854, 5
129, 16.68, 0.00, 18.29, 19.94, 0.000, 0.000, 0.000, 09:23:44.855, 5
130, 18.19, 0.00, 15.33, 20.94, 0.000, 0.000, 0.000, 09:23:44.855, 5
131, 11.53, 0.00, 12.55, 12.45, 0.000, 0.000, 0.000, 09:23:44.864, 5
132, 16.36, 0.00, 19.44, 15.89, 0.000, 0.000, 0.000, 09:23:44.865, 5
133, 16.90, 0.00, 20.11, 23.08, 0.000, 0.000, 0.000, 09:23:44.879, 5
134, 14.39, 0.00, 15.28, 16.07, 0.000, 0.000, 0.000, 09:23:44.879, 5
135, 13.31, 0.00, 14.49, 15.21, 0.000, 0.000, 0.000, 09:23:44.894, 5
136, 15.27, 0.00, 14.03, 14.63, 0.000, 0.000, 0.000, 09:23:44.894, 5
137, 18.11, 0.00, 17.05, 17.94, 0.000, 0.000, 0.000, 09:23:44.895, 5
138, 14.79, 0.00, 24.39, 16.96, 0.000, 0.000, 0.000, 09:23:44.895, 5
139, 13.17, 0.00, 14.49, 14.99, 0.000, 0.000, 0.000, 09:23:44.924, 5
140, 14.47, 0.00, 14.04, 11.68, 0.000, 0.000, 0.000, 09:23:44.925, 5
141, 17.85, 0.00, 23.90, 22.56, 0.000, 0.000, 0.000, 09:23:44.925, 5
142, 14.70, 0.00, 19.33, 18.68, 0.000, 0.000, 0.000, 09:23:44.925, 5
143, 11.21, 0.00, 13.02, 11.17, 0.000, 0.000, 0.000, 09:23:44.926, 5
144, 16.07, 0.00, 18.68, 11.97, 0.000, 0.000, 0.000, 09:23:44.926, 5
145, 16.15, 0.00, 23.65, 19.31, 0.000, 0.000, 0.000, 09:23:44.939, 5
146, 17.96, 0.00, 18.85, 17.75, 0.000, 0.000, 0.000, 09:23:44.940, 5
147, 14.42, 0.00, 14.58, 14.29, 0.000, 0.000, 0.000, 09:23:44.955, 5
148, 10.87, 0.00, 13.95, 14.29, 0.000, 0.000, 0.000, 09:23:44.955, 5
149, 18.30, 0.00, 20.98, 17.64, 0.000, 0.000, 0.000, 09:23:44.955, 5
150, 17.68, 0.00, 20.68, 18.31, 0.000, 0.000, 0.000, 09:23:44.955, 5
151, 8.80, 0.00, 14.68, 9.71, 0.000, 0.000, 0.000, 09:23:44.976, 5
152, 12.69, 0.00, 12.31, 12.13, 0.000, 0.000, 0.000, 09:23:44.976, 5
153, 17.10, 0.00, 20.07, 19.56, 0.000, 0.000, 0.000, 09:23:44.993, 5
154, 18.76, 0.00, 20.70, 18.46, 0.000, 0.000, 0.000, 09:23:44.994, 5
155, 9.56, 0.00, 14.70, 8.21, 0.000, 0.000, 0.000, 09:23:44.995, 5
156, 13.20, 0.00, 16.45, 16.39, 0.000, 0.000, 0.000, 09:23:44.995, 5
157, 16.95, 0.00, 22.50, 18.72, 0.000, 0.000, 0.000, 09:23:45.000, 5
158, 14.16, 0.00, 19.65, 14.03, 0.000, 0.000, 0.000, 09:23:45.001, 5
159, 13.83, 0.00, 13.73, 14.55, 0.000, 0.000, 0.000, 09:23:45.018, 5
160, 11.12, 0.00, 16.88, 15.79, 0.000, 0.000, 0.000, 09:23:45.019, 5
161, 14.68, 0.00, 17.23, 15.04, 0.000, 0.000, 0.000, 09:23:45.020, 5
162, 17.93, 0.00, 20.28, 21.26, 0.000, 0.000, 0.000, 09:23:45.022, 5
163, 9.98, 0.00, 13.90, 16.38, 0.000, 0.000, 0.000, 09:23:45.029, 5
164, 11.18, 0.00, 11.83, 12.38, 0.000, 0.000, 0.000, 09:23:45.029, 5
165, 19.10, 0.00, 17.22, 23.17, 0.000, 0.000, 0.000, 09:23:45.045, 5
166, 16.98, 0.00, 17.76, 17.34, 0.000, 0.000, 0.000, 09:23:45.045, 5
167, 11.19, 0.00, 13.81, 4.30, 0.000, 0.000, 0.000, 09:23:45.046, 5
168, 12.24, 0.00, 16.43, 15.46, 0.000, 0.000, 0.000, 09:23:45.047, 5
169, 14.25, 0.00, 24.57, 22.62, 0.000, 0.000, 0.000, 09:23:45.059, 5
170, 15.07, 0.00, 19.92, 16.75, 0.000, 0.000, 0.000, 09:23:45.060, 5
171, 14.46, 0.00, 16.43, 14.25, 0.000, 0.000, 0.000, 09:23:45.074, 5
172, 13.01, 0.00, 20.11, 15.32, 0.000, 0.000, 0.000, 09:23:45.075, 5
173, 14.94, 0.00, 17.33, 18.28, 0.000, 0.000, 0.000, 09:23:45.075, 5
174, 19.08, 0.00, 20.53, 18.67, 0.000, 0.000, 0.000, 09:23:45.075, 5
175, 13.54, 0.00, 11.24, 16.44, 0.000, 0.000, 0.000, 09:23:45.105, 5
176, 10.20, 0.00, 10.35, 8.43, 0.000, 0.000, 0.000, 09:23:45.105, 5
177, 18.97, 0.00, 21.19, 23.52, 0.000, 0.000, 0.000, 09:23:45.105, 5
178, 17.12, 0.00, 18.31, 17.87, 0.000, 0.000, 0.000, 09:23:45.105, 5
179, 11.46, 0.00, 17.15, 12.83, 0.000, 0.000, 0.000, 09:23:45.106, 5
180, 12.07, 0.00, 17.37, 20.83, 0.000, 0.000, 0.000, 09:23:45.106, 5
181, 17.38, 0.00, 19.61, 21.25, 0.000, 0.000, 0.000, 09:23:45.120, 5
182, 14.06, 0.00, 16.02, 16.41, 0.000, 0.000, 0.000, 09:23:45.120, 5
183, 13.74, 0.00, 15.17, 14.47, 0.000, 0.000, 0.000, 09:23:45.135, 5
184, 16.97, 0.00, 17.21, 15.49, 0.000, 0.000, 0.000, 09:23:45.135, 5
185, 21.36, 0.00, 19.11, 16.39, 0.000, 0.000, 0.000, 09:23:45.151, 5
186, 16.60, 0.00, 20.81, 19.27, 0.000, 0.000, 0.000, 09:23:45.152, 5
187, 14.82, 0.00, 13.92, 13.35, 0.000, 0.000, 0.000, 09:23:45.153, 5
188, 9.06, 0.00, 15.15, 10.77, 0.000, 0.000, 0.000, 09:23:45.153, 5
189, 14.27, 0.00, 18.74, 20.29, 0.000, 0.000, 0.000, 09:23:45.165, 5
190, 11.70, 0.00, 17.18, 19.08, 0.000, 0.000, 0.000, 09:23:45.165, 5
191, 11.58, 0.00, 12.50, 11.64, 0.000, 0.000, 0.000, 09:23:45.167, 5
192, 14.16, 0.00, 14.53, 15.96, 0.000, 0.000, 0.000, 09:23:45.167, 5
193, 15.05, 0.00, 21.95, 15.98, 0.000, 0.000, 0.000, 09:23:45.179, 5
194, 15.98, 0.00, 16.52, 15.38, 0.000, 0.000, 0.000, 09:23:45.179, 5
195, 12.87, 0.00, 18.27, 15.71, 0.000, 0.000, 0.000, 09:23:45.194, 5
196, 13.89, 0.00, 17.32, 15.21, 0.000, 0.000, 0.000, 09:23:45.194, 5
197, 18.21, 0.00, 20.17, 23.13, 0.000, 0.000, 0.000, 09:23:45.195, 5
198, 16.53, 0.00, 20.90, 18.82, 0.000, 0.000, 0.000, 09:23:45.195, 5
199, 10.65, 0.00, 11.71, 12.90, 0.000, 0.000, 0.000, 09:23:45.209, 5
200, 15.29, 0.00, 16.45, 12.71, 0.000, 0.000, 0.000, 09:23:45.209, 5
0, 18.57, 0.00, 24.97, 19.16, 0.000, 0.000, 0.000, 09:23:45.210, 5
1, 16.19, 0.00, 19.70, 19.66, 0.000, 0.000, 0.000, 09:23:45.225, 5
2, 13.37, 0.00, 9.37, 9.14, 0.000, 0.000, 0.000, 09:23:45.225, 5
3, 11.14, 0.00, 12.67, 12.46, 0.000, 0.000, 0.000, 09:23:45.239, 5
4, 18.04, 0.00, 17.25, 18.86, 0.000, 0.000, 0.000, 09:23:45.239, 5
5, 16.41, 0.00, 14.42, 16.43, 0.000, 0.000, 0.000, 09:23:45.242, 5
6, 14.99, 0.00, 15.18, 16.80, 0.000, 0.000, 0.000, 09:23:45.243, 5
7, 13.22, 0.00, 14.84, 17.09, 0.000, 0.000, 0.000, 09:23:45.261, 5
8, 16.55, 0.00, 20.00, 16.83, 0.000, 0.000, 0.000, 09:23:45.261, 5
9, 13.19, 0.00, 20.14, 16.63, 0.000, 0.000, 0.000, 09:23:45.269, 5
10, 12.57, 0.00, 16.58, 11.03, 0.000, 0.000, 0.000, 09:23:45.269, 5
11, 11.27, 0.00, 15.23, 13.51, 0.000, 0.000, 0.000, 09:23:45.269, 5
12, 16.65, 0.00, 22.10, 20.52, 0.000, 0.000, 0.000, 09:23:45.270, 5
13, 13.95, 0.00, 15.29, 16.43, 0.000, 0.000, 0.000, 09:23:45.285, 5
14, 11.68, 0.00, 10.49, 8.21, 0.000, 0.000, 0.000, 09:23:45.285, 5
15, 15.07, 0.00, 14.97, 17.58, 0.000, 0.000, 0.000, 09:23:45.299, 5
16, 16.96, 0.00, 22.22, 20.22, 0.000, 0.000, 0.000, 09:23:45.299, 5
17, 15.75, 0.00, 17.37, 17.84, 0.000, 0.000, 0.000, 09:23:45.299, 5
18, 11.46, 0.00, 13.74, 13.23, 0.000, 0.000, 0.000, 09:23:45.300, 5
19, 10.55, 0.00, 17.64, 12.26, 0.000, 0.000, 0.000, 09:23:45.314, 5
20, 18.19, 0.00, 22.37, 18.78, 0.000, 0.000, 0.000, 09:23:45.315, 5
21, 17.34, 0.00, 18.70, 17.07, 0.000, 0.000, 0.000, 09:23:45.329, 5
22, 10.69, 0.00, 15.77, 16.59, 0.000, 0.000, 0.000, 09:23:45.329, 5
23, 13.54, 0.00, 13.74, 13.10, 0.000, 0.000, 0.000, 09:23:45.330, 5
24, 18.63, 0.00, 18.99, 20.80, 0.000, 0.000, 0.000, 09:23:45.330, 5
25, 14.48, 0.00, 16.03, 18.69, 0.000, 0.000, 0.000, 09:23:45.344, 5
26, 11.30, 0.00, 9.56, 8.37, 0.000, 0.000, 0.000, 09:23:45.344, 5
27, 13.61, 0.00, 19.48, 19.72, 0.000, 0.000, 0.000, 09:23:45.359, 5
28, 19.68, 0.00, 18.74, 20.58, 0.000, 0.000, 0.000, 09:23:45.359, 5
29, 14.39, 0.00, 13.83, 9.37, 0.000, 0.000, 0.000, 09:23:45.360, 5
30, 13.21, 0.00, 14.77, 10.45, 0.000, 0.000, 0.000, 09:23:45.360, 5
31, 12.76, 0.00, 16.96, 18.63, 0.000, 0.000, 0.000, 09:23:45.374, 5
32, 16.78, 0.00, 20.69, 19.37, 0.000, 0.000, 0.000, 09:23:45.374, 5
33, 15.72, 0.00, 22.24, 17.34, 0.000, 0.000, 0.000, 09:23:45.390, 5
34, 17.22, 0.00, 17.32, 13.97, 0.000, 0.000, 0.000, 09:23:45.390, 5
35, 11.67, 0.00, 17.72, 14.47, 0.000, 0.000, 0.000, 09:23:45.404, 5
36, 16.74, 0.00, 21.48, 20.59, 0.000, 0.000, 0.000, 09:23:45.404, 5
37, 15.36, 0.00, 18.35, 19.63, 0.000, 0.000, 0.000, 09:23:45.404, 5
38, 12.31, 0.00, 12.46, 9.10, 0.000, 0.000, 0.000, 09:23:45.404, 5
39, 13.63, 0.00, 18.55, 17.43, 0.000, 0.000, 0.000, 09:23:45.421, 5
40, 18.90, 0.00, 21.12, 20.02, 0.000, 0.000, 0.000, 09:23:45.422, 5
41, 15.31, 0.00, 21.37, 14.45, 0.000, 0.000, 0.000, 09:23:45.422, 5
42, 12.11, 0.00, 15.30, 11.51, 0.000, 0.000, 0.000, 09:23:45.422, 5
43, 17.40, 0.00, 17.59, 12.71, 0.000, 0.000, 0.000, 09:23:45.435, 5
44, 15.51, 0.00, 18.91, 14.67, 0.000, 0.000, 0.000, 09:23:45.435, 5
45, 15.73, 0.00, 17.02, 20.70, 0.000, 0.000, 0.000, 09:23:45.450, 5
46, 13.75, 0.00, 13.74, 17.93, 0.000, 0.000, 0.000, 09:23:45.451, 5
47, 15.70, 0.00, 18.75, 11.37, 0.000, 0.000, 0.000, 09:23:45.451, 5
48, 17.33, 0.00, 20.33, 20.74, 0.000, 0.000, 0.000, 09:23:45.451, 5
49, 13.70, 0.00, 18.47, 18.39, 0.000, 0.000, 0.000, 09:23:45.465, 5
50, 12.32, 0.00, 8.22, 9.89, 0.000, 0.000, 0.000, 09:23:45.465, 5
51, 14.70, 0.00, 17.27, 13.88, 0.000, 0.000, 0.000, 09:23:45.479, 5
52, 18.86, 0.00, 20.06, 17.50, 0.000, 0.000, 0.000, 09:23:45.480, 5
53, 12.58, 0.00, 15.94, 16.88, 0.000, 0.000, 0.000, 09:23:45.480, 5
54, 13.18, 0.00, 13.53, 14.53, 0.000, 0.000, 0.000, 09:23:45.480, 5
55, 11.41, 0.00, 13.73, 15.45, 0.000, 0.000, 0.000, 09:23:45.494, 5
56, 14.78, 0.00, 23.92, 19.38, 0.000, 0.000, 0.000, 09:23:45.495, 5
57, 15.28, 0.00, 15.44, 19.41, 0.000, 0.000, 0.000, 09:23:45.510, 5
58, 10.80, 0.00, 13.80, 14.75, 0.000, 0.000, 0.000, 09:23:45.510, 5
59, 11.86, 0.00, 16.92, 16.18, 0.000, 0.000, 0.000, 09:23:45.510, 5
60, 19.80, 0.00, 23.12, 21.47, 0.000, 0.000, 0.000, 09:23:45.510, 5
