%OpenBCI Raw EEG Data
%
%Sample Rate = 200.0 Hz
%First Column = SampleIndex
%Last Column = Timestamp 
%Other Columns = EEG data in microvolts followed by Accel Data (in G) interleaved with Aux Data
0, 7.40, 0.00, 7.90, 9.33, 0.000, 0.000, 0.000, 09:09:02.216
1, 17.65, 0.00, 16.30, 14.42, 0.000, 0.000, 0.000, 09:09:02.230
2, 16.28, 0.00, 21.71, 22.07, 0.000, 0.000, 0.000, 09:09:02.232
3, 15.54, 0.00, 20.14, 15.85, 0.000, 0.000, 0.000, 09:09:02.240
4, 9.32, 0.00, 13.90, 16.55, 0.000, 0.000, 0.000, 09:09:02.242
5, 13.42, 0.00, 15.11, 15.69, 0.000, 0.000, 0.000, 09:09:02.243
6, 17.57, 0.00, 23.99, 21.90, 0.000, 0.000, 0.000, 09:09:02.245
7, 14.40, 0.00, 17.45, 15.64, 0.000, 0.000, 0.000, 09:09:02.254
8, 9.42, 0.00, 10.74, 8.72, 0.000, 0.000, 0.000, 09:09:02.255
9, 12.87, 0.00, 16.90, 17.71, 0.000, 0.000, 0.000, 09:09:02.269
10, 19.59, 0.00, 29.15, 24.98, 0.000, 0.000, 0.000, 09:09:02.270
11, 18.47, 0.00, 18.60, 15.64, 0.000, 0.000, 0.000, 09:09:02.271
12, 14.01, 0.00, 10.33, 10.56, 0.000, 0.000, 0.000, 09:09:02.272
13, 14.45, 0.00, 15.60, 15.23, 0.000, 0.000, 0.000, 09:09:02.284
14, 20.58, 0.00, 17.74, 23.58, 0.000, 0.000, 0.000, 09:09:02.285
15, 18.11, 0.00, 19.24, 16.14, 0.000, 0.000, 0.000, 09:09:02.300
16, 11.52, 0.00, 15.03, 10.53, 0.000, 0.000, 0.000, 09:09:02.301
17, 11.25, 0.00, 16.37, 11.06, 0.000, 0.000, 0.000, 09:09:02.307
18, 18.49, 0.00, 25.52, 24.33, 0.000, 0.000, 0.000, 09:09:02.308
19, 18.43, 0.00, 15.89, 19.61, 0.000, 0.000, 0.000, 09:09:02.316
20, 14.46, 0.00, 7.77, 13.19, 0.000, 0.000, 0.000, 09:09:02.318
21, 15.53, 0.00, 19.81, 15.98, 0.000, 0.000, 0.000, 09:09:02.330
22, 20.36, 0.00, 21.54, 24.62, 0.000, 0.000, 0.000, 09:09:02.331
23, 12.59, 0.00, 15.65, 14.36, 0.000, 0.000, 0.000, 09:09:02.332
24, 11.80, 0.00, 12.10, 14.96, 0.000, 0.000, 0.000, 09:09:02.333
25, 11.49, 0.00, 15.80, 15.61, 0.000, 0.000, 0.000, 09:09:02.344
26, 17.55, 0.00, 20.00, 17.01, 0.000, 0.000, 0.000, 09:09:02.345
27, 14.18, 0.00, 16.86, 16.43, 0.000, 0.000, 0.000, 09:09:02.359
28, 13.57, 0.00, 13.22, 13.12, 0.000, 0.000, 0.000, 09:09:02.360
29, 13.23, 0.00, 15.89, 15.97, 0.000, 0.000, 0.000, 09:09:02.360
30, 18.20, 0.00, 18.17, 21.45, 0.000, 0.000, 0.000, 09:09:02.361
31, 11.47, 0.00, 15.17, 18.05, 0.000, 0.000, 0.000, 09:09:02.374
32, 6.69, 0.00, 13.40, 8.88, 0.000, 0.000, 0.000, 09:09:02.374
33, 9.84, 0.00, 19.01, 17.12, 0.000, 0.000, 0.000, 09:09:02.389
34, 21.16, 0.00, 23.67, 24.48, 0.000, 0.000, 0.000, 09:09:02.390
35, 17.70, 0.00, 21.40, 13.46, 0.000, 0.000, 0.000, 09:09:02.390
36, 15.37, 0.00, 12.84, 11.80, 0.000, 0.000, 0.000, 09:09:02.390
37, 12.02, 0.00, 19.51, 16.47, 0.000, 0.000, 0.000, 09:09:02.404
38, 16.48, 0.00, 22.74, 21.05, 0.000, 0.000, 0.000, 09:09:02.405
39, 14.27, 0.00, 18.90, 16.42, 0.000, 0.000, 0.000, 09:09:02.419
40, 9.96, 0.00, 14.48, 10.02, 0.000, 0.000, 0.000, 09:09:02.420
41, 15.69, 0.00, 14.72, 16.87, 0.000, 0.000, 0.000, 09:09:02.420
42, 18.86, 0.00, 21.08, 24.65, 0.000, 0.000, 0.000, 09:09:02.420
43, 14.96, 0.00, 11.43, 14.58, 0.000, 0.000, 0.000, 09:09:02.434
44, 10.84, 0.00, 10.29, 5.77, 0.000, 0.000, 0.000, 09:09:02.436
45, 15.13, 0.00, 16.56, 20.06, 0.000, 0.000, 0.000, 09:09:02.450
46, 18.64, 0.00, 21.05, 21.81, 0.000, 0.000, 0.000, 09:09:02.451
47, 9.53, 0.00, 13.17, 12.31, 0.000, 0.000, 0.000, 09:09:02.451
48, 8.79, 0.00, 10.85, 12.75, 0.000, 0.000, 0.000, 09:09:02.451
49, 14.94, 0.00, 17.67, 18.12, 0.000, 0.000, 0.000, 09:09:02.466
50, 18.58, 0.00, 23.37, 20.90, 0.000, 0.000, 0.000, 09:09:02.466
51, 13.71, 0.00, 20.34, 15.55, 0.000, 0.000, 0.000, 09:09:02.479
52, 12.66, 0.00, 13.70, 10.89, 0.000, 0.000, 0.000, 09:09:02.480
53, 16.62, 0.00, 15.23, 14.55, 0.000, 0.000, 0.000, 09:09:02.481
54, 19.80, 0.00, 19.31, 13.75, 0.000, 0.000, 0.000, 09:09:02.481
55, 15.27, 0.00, 17.39, 13.47, 0.000, 0.000, 0.000, 09:09:02.494
56, 10.94, 0.00, 9.76, 11.97, 0.000, 0.000, 0.000, 09:09:02.494
57, 15.97, 0.00, 21.44, 19.19, 0.000, 0.000, 0.000, 09:09:02.510
58, 18.53, 0.00, 26.52, 23.37, 0.000, 0.000, 0.000, 09:09:02.510
59, 12.65, 0.00, 15.83, 8.58, 0.000, 0.000, 0.000, 09:09:02.511
60, 11.03, 0.00, 14.88, 12.57, 0.000, 0.000, 0.000, 09:09:02.512
61, 15.91, 0.00, 19.27, 18.69, 0.000, 0.000, 0.000, 09:09:02.525
62, 20.86, 0.00, 20.33, 19.77, 0.000, 0.000, 0.000, 09:09:02.525
63, 15.89, 0.00, 19.22, 17.68, 0.000, 0.000, 0.000, 09:09:02.539
64, 8.68, 0.00, 12.18, 10.35, 0.000, 0.000, 0.000, 09:09:02.540
65, 12.60, 0.00, 16.39, 18.75, 0.000, 0.000, 0.000, 09:09:02.540
66, 17.76, 0.00, 18.94, 21.46, 0.000, 0.000, 0.000, 09:09:02.540
67, 14.01, 0.00, 13.47, 12.27, 0.000, 0.000, 0.000, 09:09:02.554
68, 10.65, 0.00, 8.02, 5.96, 0.000, 0.000, 0.000, 09:09:02.555
69, 17.05, 0.00, 20.18, 18.40, 0.000, 0.000, 0.000, 09:09:02.569
70, 17.03, 0.00, 23.63, 22.59, 0.000, 0.000, 0.000, 09:09:02.570
71, 15.82, 0.00, 14.35, 12.00, 0.000, 0.000, 0.000, 09:09:02.570
72, 12.84, 0.00, 13.07, 12.71, 0.000, 0.000, 0.000, 09:09:02.571
73, 12.09, 0.00, 18.42, 11.78, 0.000, 0.000, 0.000, 09:09:02.585
74, 17.07, 0.00, 20.66, 17.06, 0.000, 0.000, 0.000, 09:09:02.586
75, 13.60, 0.00, 16.91, 17.32, 0.000, 0.000, 0.000, 09:09:02.600
76, 11.10, 0.00, 11.93, 12.53, 0.000, 0.000, 0.000, 09:09:02.600
77, 14.01, 0.00, 15.62, 16.17, 0.000, 0.000, 0.000, 09:09:02.600
78, 18.55, 0.00, 19.63, 20.97, 0.000, 0.000, 0.000, 09:09:02.601
79, 14.77, 0.00, 16.02, 12.78, 0.000, 0.000, 0.000, 09:09:02.616
80, 9.82, 0.00, 10.53, 9.76, 0.000, 0.000, 0.000, 09:09:02.616
81, 16.00, 0.00, 18.93, 16.63, 0.000, 0.000, 0.000, 09:09:02.630
82, 18.88, 0.00, 24.23, 23.77, 0.000, 0.000, 0.000, 09:09:02.630
83, 15.79, 0.00, 16.38, 15.21, 0.000, 0.000, 0.000, 09:09:02.631
84, 12.78, 0.00, 11.95, 16.95, 0.000, 0.000, 0.000, 09:09:02.631
85, 14.90, 0.00, 21.60, 16.47, 0.000, 0.000, 0.000, 09:09:02.644
86, 15.67, 0.00, 20.83, 18.02, 0.000, 0.000, 0.000, 09:09:02.645
87, 13.23, 0.00, 15.67, 15.35, 0.000, 0.000, 0.000, 09:09:02.661
88, 8.60, 0.00, 12.54, 11.85, 0.000, 0.000, 0.000, 09:09:02.661
89, 15.37, 0.00, 18.02, 13.31, 0.000, 0.000, 0.000, 09:09:02.661
90, 20.38, 0.00, 19.81, 25.09, 0.000, 0.000, 0.000, 09:09:02.662
91, 12.97, 0.00, 13.43, 15.62, 0.000, 0.000, 0.000, 09:09:02.674
92, 8.72, 0.00, 9.57, 10.00, 0.000, 0.000, 0.000, 09:09:02.675
93, 16.18, 0.00, 16.89, 11.59, 0.000, 0.000, 0.000, 09:09:02.689
94, 20.11, 0.00, 23.89, 21.28, 0.000, 0.000, 0.000, 09:09:02.690
95, 10.63, 0.00, 21.98, 15.19, 0.000, 0.000, 0.000, 09:09:02.690
96, 13.28, 0.00, 13.58, 14.08, 0.000, 0.000, 0.000, 09:09:02.690
97, 11.02, 0.00, 20.41, 18.06, 0.000, 0.000, 0.000, 09:09:02.704
98, 21.02, 0.00, 22.53, 18.61, 0.000, 0.000, 0.000, 09:09:02.705
99, 14.05, 0.00, 14.38, 18.69, 0.000, 0.000, 0.000, 09:09:02.719
100, 10.04, 0.00, 14.64, 11.17, 0.000, 0.000, 0.000, 09:09:02.720
101, 16.69, 0.00, 21.99, 18.53, 0.000, 0.000, 0.000, 09:09:02.720
102, 17.16, 0.00, 22.16, 22.47, 0.000, 0.000, 0.000, 09:09:02.720
103, 17.62, 0.00, 16.88, 16.15, 0.000, 0.000, 0.000, 09:09:02.741
104, 13.04, 0.00, 13.85, 6.82, 0.000, 0.000, 0.000, 09:09:02.741
105, 15.32, 0.00, 16.59, 21.55, 0.000, 0.000, 0.000, 09:09:02.750
106, 20.32, 0.00, 22.15, 21.03, 0.000, 0.000, 0.000, 09:09:02.750
107, 14.25, 0.00, 14.82, 14.54, 0.000, 0.000, 0.000, 09:09:02.750
108, 10.62, 0.00, 9.39, 8.32, 0.000, 0.000, 0.000, 09:09:02.750
109, 15.94, 0.00, 18.25, 17.82, 0.000, 0.000, 0.000, 09:09:02.765
110, 15.36, 0.00, 16.59, 22.39, 0.000, 0.000, 0.000, 09:09:02.766
111, 12.50, 0.00, 16.72, 17.02, 0.000, 0.000, 0.000, 09:09:02.779
112, 12.35, 0.00, 10.90, 13.11, 0.000, 0.000, 0.000, 09:09:02.780
113, 11.93, 0.00, 16.81, 16.31, 0.000, 0.000, 0.000, 09:09:02.780
114, 18.41, 0.00, 24.43, 20.91, 0.000, 0.000, 0.000, 09:09:02.780
115, 16.51, 0.00, 15.75, 12.20, 0.000, 0.000, 0.000, 09:09:02.795
116, 11.68, 0.00, 12.68, 8.79, 0.000, 0.000, 0.000, 09:09:02.795
117, 15.49, 0.00, 21.48, 21.49, 0.000, 0.000, 0.000, 09:09:02.810
118, 18.63, 0.00, 24.48, 21.19, 0.000, 0.000, 0.000, 09:09:02.811
119, 13.78, 0.00, 15.95, 11.09, 0.000, 0.000, 0.000, 09:09:02.815
120, 15.18, 0.00, 15.60, 15.20, 0.000, 0.000, 0.000, 09:09:02.816
121, 13.79, 0.00, 14.82, 18.98, 0.000, 0.000, 0.000, 09:09:02.825
122, 17.12, 0.00, 24.28, 16.84, 0.000, 0.000, 0.000, 09:09:02.825
123, 14.88, 0.00, 17.21, 18.11, 0.000, 0.000, 0.000, 09:09:02.840
124, 9.48, 0.00, 13.50, 12.58, 0.000, 0.000, 0.000, 09:09:02.842
125, 19.05, 0.00, 21.29, 18.85, 0.000, 0.000, 0.000, 09:09:02.848
126, 18.86, 0.00, 22.52, 23.68, 0.000, 0.000, 0.000, 09:09:02.848
127, 13.43, 0.00, 15.57, 16.15, 0.000, 0.000, 0.000, 09:09:02.854
128, 10.76, 0.00, 11.81, 8.12, 0.000, 0.000, 0.000, 09:09:02.855
129, 17.53, 0.00, 21.31, 19.90, 0.000, 0.000, 0.000, 09:09:02.869
130, 16.06, 0.00, 21.43, 23.01, 0.000, 0.000, 0.000, 09:09:02.869
131, 14.17, 0.00, 17.29, 14.20, 0.000, 0.000, 0.000, 09:09:02.869
132, 11.27, 0.00, 11.35, 12.51, 0.000, 0.000, 0.000, 09:09:02.869
133, 13.57, 0.00, 21.80, 14.21, 0.000, 0.000, 0.000, 09:09:02.885
134, 16.94, 0.00, 19.70, 18.87, 0.000, 0.000, 0.000, 09:09:02.885
135, 16.30, 0.00, 16.15, 20.55, 0.000, 0.000, 0.000, 09:09:02.901
136, 13.92, 0.00, 11.76, 6.74, 0.000, 0.000, 0.000, 09:09:02.901
137, 10.80, 0.00, 12.03, 16.01, 0.000, 0.000, 0.000, 09:09:02.901
138, 20.63, 0.00, 21.33, 20.52, 0.000, 0.000, 0.000, 09:09:02.901
139, 11.46, 0.00, 14.54, 16.43, 0.000, 0.000, 0.000, 09:09:02.916
140, 8.50, 0.00, 6.53, 5.64, 0.000, 0.000, 0.000, 09:09:02.917
141, 15.90, 0.00, 19.45, 17.02, 0.000, 0.000, 0.000, 09:09:02.930
142, 20.59, 0.00, 24.95, 20.42, 0.000, 0.000, 0.000, 09:09:02.931
143, 13.72, 0.00, 15.01, 11.68, 0.000, 0.000, 0.000, 09:09:02.931
144, 12.33, 0.00, 11.27, 9.64, 0.000, 0.000, 0.000, 09:09:02.931
145, 17.32, 0.00, 19.13, 16.87, 0.000, 0.000, 0.000, 09:09:02.944
146, 19.90, 0.00, 17.37, 18.51, 0.000, 0.000, 0.000, 09:09:02.945
147, 12.41, 0.00, 14.11, 16.50, 0.000, 0.000, 0.000, 09:09:02.960
148, 15.67, 0.00, 12.57, 8.47, 0.000, 0.000, 0.000, 09:09:02.960
149, 17.18, 0.00, 16.50, 16.48, 0.000, 0.000, 0.000, 09:09:02.960
150, 17.31, 0.00, 27.21, 19.28, 0.000, 0.000, 0.000, 09:09:02.961
151, 14.13, 0.00, 18.28, 13.96, 0.000, 0.000, 0.000, 09:09:02.974
152, 10.05, 0.00, 11.41, 7.72, 0.000, 0.000, 0.000, 09:09:02.975
153, 15.64, 0.00, 19.70, 17.43, 0.000, 0.000, 0.000, 09:09:02.990
154, 18.76, 0.00, 17.70, 20.57, 0.000, 0.000, 0.000, 09:09:02.990
155, 12.86, 0.00, 14.49, 14.93, 0.000, 0.000, 0.000, 09:09:02.990
156, 14.54, 0.00, 14.71, 15.40, 0.000, 0.000, 0.000, 09:09:02.990
157, 14.40, 0.00, 19.13, 17.48, 0.000, 0.000, 0.000, 09:09:03.005
158, 17.02, 0.00, 22.77, 19.12, 0.000, 0.000, 0.000, 09:09:03.005
159, 14.66, 0.00, 19.32, 16.51, 0.000, 0.000, 0.000, 09:09:03.020
160, 12.42, 0.00, 11.86, 12.67, 0.000, 0.000, 0.000, 09:09:03.020
161, 13.14, 0.00, 15.82, 15.09, 0.000, 0.000, 0.000, 09:09:03.020
162, 18.79, 0.00, 23.33, 19.00, 0.000, 0.000, 0.000, 09:09:03.020
163, 14.03, 0.00, 13.74, 13.16, 0.000, 0.000, 0.000, 09:09:03.035
164, 9.68, 0.00, 11.66, 9.76, 0.000, 0.000, 0.000, 09:09:03.036
165, 13.61, 0.00, 19.55, 20.23, 0.000, 0.000, 0.000, 09:09:03.050
166, 17.15, 0.00, 24.05, 21.95, 0.000, 0.000, 0.000, 09:09:03.050
167, 13.57, 0.00, 14.16, 14.28, 0.000, 0.000, 0.000, 09:09:03.051
168, 12.47, 0.00, 16.60, 16.34, 0.000, 0.000, 0.000, 09:09:03.051
169, 14.02, 0.00, 21.15, 19.73, 0.000, 0.000, 0.000, 09:09:03.066
170, 16.59, 0.00, 18.15, 18.21, 0.000, 0.000, 0.000, 09:09:03.066
171, 17.50, 0.00, 16.83, 17.56, 0.000, 0.000, 0.000, 09:09:03.080
172, 11.80, 0.00, 10.61, 8.92, 0.000, 0.000, 0.000, 09:09:03.081
173, 13.10, 0.00, 18.81, 18.48, 0.000, 0.000, 0.000, 09:09:03.083
174, 13.48, 0.00, 18.65, 21.34, 0.000, 0.000, 0.000, 09:09:03.084
175, 14.55, 0.00, 17.01, 13.23, 0.000, 0.000, 0.000, 09:09:03.094
176, 11.94, 0.00, 9.34, 11.86, 0.000, 0.000, 0.000, 09:09:03.095
177, 15.57, 0.00, 20.92, 19.02, 0.000, 0.000, 0.000, 09:09:03.109
178, 17.35, 0.00, 22.78, 19.05, 0.000, 0.000, 0.000, 09:09:03.109
179, 13.17, 0.00, 18.74, 10.27, 0.000, 0.000, 0.000, 09:09:03.110
180, 10.66, 0.00, 10.94, 9.52, 0.000, 0.000, 0.000, 09:09:03.110
181, 16.12, 0.00, 20.07, 19.10, 0.000, 0.000, 0.000, 09:09:03.124
182, 18.35, 0.00, 16.82, 15.48, 0.000, 0.000, 0.000, 09:09:03.124
183, 12.91, 0.00, 18.69, 17.73, 0.000, 0.000, 0.000, 09:09:03.139
184, 9.15, 0.00, 9.54, 11.89, 0.000, 0.000, 0.000, 09:09:03.139
185, 13.50, 0.00, 17.95, 19.28, 0.000, 0.000, 0.000, 09:09:03.139
186, 18.34, 0.00, 21.99, 20.34, 0.000, 0.000, 0.000, 09:09:03.140
187, 13.53, 0.00, 16.08, 18.40, 0.000, 0.000, 0.000, 09:09:03.154
188, 13.00, 0.00, 7.64, 12.07, 0.000, 0.000, 0.000, 09:09:03.154
189, 11.50, 0.00, 23.56, 19.70, 0.000, 0.000, 0.000, 09:09:03.169
190, 17.61, 0.00, 20.23, 21.62, 0.000, 0.000, 0.000, 09:09:03.169
191, 14.26, 0.00, 12.62, 11.43, 0.000, 0.000, 0.000, 09:09:03.169
192, 9.71, 0.00, 10.13, 13.87, 0.000, 0.000, 0.000, 09:09:03.170
193, 15.38, 0.00, 18.59, 15.30, 0.000, 0.000, 0.000, 09:09:03.184
194, 19.72, 0.00, 19.87, 13.07, 0.000, 0.000, 0.000, 09:09:03.184
195, 14.93, 0.00, 19.69, 15.42, 0.000, 0.000, 0.000, 09:09:03.200
196, 15.10, 0.00, 17.74, 13.62, 0.000, 0.000, 0.000, 09:09:03.200
197, 16.94, 0.00, 18.80, 18.51, 0.000, 0.000, 0.000, 09:09:03.200
198, 16.78, 0.00, 22.28, 20.19, 0.000, 0.000, 0.000, 09:09:03.200
199, 17.35, 0.00, 19.60, 17.22, 0.000, 0.000, 0.000, 09:09:03.215
200, 10.35, 0.00, 9.29, 8.54, 0.000, 0.000, 0.000, 09:09:03.216
0, 19.21, 0.00, 24.97, 23.62, 0.000, 0.000, 0.000, 09:09:03.221
1, 16.97, 0.00, 25.24, 23.10, 0.000, 0.000, 0.000, 09:09:03.229
2, 12.67, 0.00, 16.38, 10.87, 0.000, 0.000, 0.000, 09:09:03.230
3, 13.12, 0.00, 11.02, 12.83, 0.000, 0.000, 0.000, 09:09:03.244
4, 17.02, 0.00, 20.34, 21.05, 0.000, 0.000, 0.000, 09:09:03.244
5, 17.63, 0.00, 18.56, 16.94, 0.000, 0.000, 0.000, 09:09:03.244
6, 13.10, 0.00, 13.17, 15.04, 0.000, 0.000, 0.000, 09:09:03.245
7, 9.08, 0.00, 11.95, 14.31, 0.000, 0.000, 0.000, 09:09:03.260
8, 15.75, 0.00, 17.28, 12.93, 0.000, 0.000, 0.000, 09:09:03.260
9, 19.14, 0.00, 24.17, 24.37, 0.000, 0.000, 0.000, 09:09:03.274
10, 11.40, 0.00, 14.39, 13.42, 0.000, 0.000, 0.000, 09:09:03.275
11, 12.28, 0.00, 9.76, 8.70, 0.000, 0.000, 0.000, 09:09:03.275
12, 18.53, 0.00, 20.73, 20.26, 0.000, 0.000, 0.000, 09:09:03.275
13, 15.37, 0.00, 24.45, 18.67, 0.000, 0.000, 0.000, 09:09:03.289
14, 14.53, 0.00, 12.17, 10.96, 0.000, 0.000, 0.000, 09:09:03.290
15, 14.71, 0.00, 15.98, 16.29, 0.000, 0.000, 0.000, 09:09:03.305
16, 14.97, 0.00, 19.25, 14.85, 0.000, 0.000, 0.000, 09:09:03.306
17, 18.29, 0.00, 24.37, 20.59, 0.000, 0.000, 0.000, 09:09:03.306
18, 14.31, 0.00, 14.18, 14.43, 0.000, 0.000, 0.000, 09:09:03.306
19, 11.66, 0.00, 13.64, 12.95, 0.000, 0.000, 0.000, 09:09:03.320
20, 13.82, 0.00, 13.96, 13.53, 0.000, 0.000, 0.000, 09:09:03.320
21, 19.87, 0.00, 21.90, 22.12, 0.000, 0.000, 0.000, 09:09:03.336
22, 15.02, 0.00, 13.79, 12.26, 0.000, 0.000, 0.000, 09:09:03.336
23, 10.59, 0.00, 8.44, 6.70, 0.000, 0.000, 0.000, 09:09:03.337
24, 16.06, 0.00, 23.59, 20.30, 0.000, 0.000, 0.000, 09:09:03.337
25, 16.13, 0.00, 24.22, 22.82, 0.000, 0.000, 0.000, 09:09:03.351
26, 11.37, 0.00, 16.78, 11.77, 0.000, 0.000, 0.000, 09:09:03.351
27, 14.53, 0.00, 13.50, 14.83, 0.000, 0.000, 0.000, 09:09:03.365
28, 15.97, 0.00, 20.96, 20.46, 0.000, 0.000, 0.000, 09:09:03.365
29, 17.47, 0.00, 16.75, 19.39, 0.000, 0.000, 0.000, 09:09:03.366
30, 14.07, 0.00, 17.12, 12.37, 0.000, 0.000, 0.000, 09:09:03.368
31, 11.04, 0.00, 18.14, 12.95, 0.000, 0.000, 0.000, 09:09:03.380
32, 12.75, 0.00, 16.79, 13.24, 0.000, 0.000, 0.000, 09:09:03.381
33, 17.43, 0.00, 20.57, 23.76, 0.000, 0.000, 0.000, 09:09:03.396
34, 12.00, 0.00, 14.24, 14.06, 0.000, 0.000, 0.000, 09:09:03.397
35, 10.80, 0.00, 9.65, 10.14, 0.000, 0.000, 0.000, 09:09:03.399
36, 14.57, 0.00, 20.94, 19.40, 0.000, 0.000, 0.000, 09:09:03.399
37, 16.92, 0.00, 19.00, 19.05, 0.000, 0.000, 0.000, 09:09:03.410
38, 10.99, 0.00, 12.35, 9.69, 0.000, 0.000, 0.000, 09:09:03.410
39, 12.87, 0.00, 16.35, 13.71, 0.000, 0.000, 0.000, 09:09:03.425
40, 15.83, 0.00, 22.45, 18.28, 0.000, 0.000, 0.000, 09:09:03.425
41, 17.59, 0.00, 18.68, 19.71, 0.000, 0.000, 0.000, 09:09:03.425
42, 12.52, 0.00, 16.68, 12.83, 0.000, 0.000, 0.000, 09:09:03.426
43, 17.36, 0.00, 16.86, 12.14, 0.000, 0.000, 0.000, 09:09:03.439
44, 15.73, 0.00, 18.82, 16.39, 0.000, 0.000, 0.000, 09:09:03.440
45, 19.78, 0.00, 23.48, 24.48, 0.000, 0.000, 0.000, 09:09:03.454
46, 12.46, 0.00, 9.14, 11.14, 0.000, 0.000, 0.000, 09:09:03.455
47, 11.13, 0.00, 11.67, 7.28, 0.000, 0.000, 0.000, 09:09:03.455
48, 14.72, 0.00, 21.28, 19.22, 0.000, 0.000, 0.000, 09:09:03.456
49, 17.53, 0.00, 21.47, 21.27, 0.000, 0.000, 0.000, 09:09:03.471
50, 11.29, 0.00, 13.62, 10.26, 0.000, 0.000, 0.000, 09:09:03.471
51, 12.73, 0.00, 10.71, 16.68, 0.000, 0.000, 0.000, 09:09:03.485
52, 15.00, 0.00, 20.91, 19.02, 0.000, 0.000, 0.000, 09:09:03.485
53, 15.28, 0.00, 19.90, 21.26, 0.000, 0.000, 0.000, 09:09:03.486
54, 13.33, 0.00, 12.41, 13.85, 0.000, 0.000, 0.000, 09:09:03.486
55, 9.25, 0.00, 13.36, 9.37, 0.000, 0.000, 0.000, 09:09:03.506
56, 14.39, 0.00, 17.09, 14.02, 0.000, 0.000, 0.000, 09:09:03.507
57, 17.75, 0.00, 22.49, 21.19, 0.000, 0.000, 0.000, 09:09:03.517
58, 16.31, 0.00, 19.49, 13.90, 0.000, 0.000, 0.000, 09:09:03.517
59, 15.97, 0.00, 11.22, 13.04, 0.000, 0.000, 0.000, 09:09:03.519
60, 17.33, 0.00, 20.89, 20.20, 0.000, 0.000, 0.000, 09:09:03.519
61, 15.92, 0.00, 18.81, 23.33, 0.000, 0.000, 0.000, 09:09:03.530
62, 10.49, 0.00, 10.31, 6.18, 0.000, 0.000, 0.000, 09:09:03.530
63, 11.34, 0.00, 17.16, 14.05, 0.000, 0.000, 0.000, 09:09:03.544
64, 16.54, 0.00, 19.63, 18.37, 0.000, 0.000, 0.000, 09:09:03.545
65, 15.69, 0.00, 16.63, 17.55, 0.000, 0.000, 0.000, 09:09:03.545
66, 13.14, 0.00, 14.47, 12.99, 0.000, 0.000, 0.000, 09:09:03.545
67, 12.78, 0.00, 11.11, 13.08, 0.000, 0.000, 0.000, 09:09:03.559
68, 14.63, 0.00, 19.76, 15.73, 0.000, 0.000, 0.000, 09:09:03.560
69, 18.24, 0.00, 24.72, 19.66, 0.000, 0.000, 0.000, 09:09:03.590
70, 17.46, 0.00, 15.60, 18.05, 0.000, 0.000, 0.000, 09:09:03.590
71, 9.95, 0.00, 14.63, 14.88, 0.000, 0.000, 0.000, 09:09:03.591
72, 19.37, 0.00, 17.87, 23.14, 0.000, 0.000, 0.000, 09:09:03.591
73, 15.79, 0.00, 20.43, 21.97, 0.000, 0.000, 0.000, 09:09:03.592
74, 13.32, 0.00, 12.14, 12.17, 0.000, 0.000, 0.000, 09:09:03.592
75, 12.00, 0.00, 12.32, 11.71, 0.000, 0.000, 0.000, 09:09:03.592
76, 18.57, 0.00, 22.15, 21.43, 0.000, 0.000, 0.000, 09:09:03.592
77, 17.76, 0.00, 19.72, 18.25, 0.000, 0.000, 0.000, 09:09:03.604
78, 11.85, 0.00, 18.40, 18.32, 0.000, 0.000, 0.000, 09:09:03.604
79, 8.73, 0.00, 14.77, 11.02, 0.000, 0.000, 0.000, 09:09:03.620
80, 14.44, 0.00, 21.80, 17.73, 0.000, 0.000, 0.000, 09:09:03.620
81, 15.23, 0.00, 17.60, 20.68, 0.000, 0.000, 0.000, 09:09:03.636
82, 17.84, 0.00, 13.35, 15.50, 0.000, 0.000, 0.000, 09:09:03.636
83, 10.86, 0.00, 14.19, 7.16, 0.000, 0.000, 0.000, 09:09:03.637
84, 18.43, 0.00, 24.08, 20.19, 0.000, 0.000, 0.000, 09:09:03.638
85, 17.61, 0.00, 22.93, 19.44, 0.000, 0.000, 0.000, 09:09:03.651
86, 13.34, 0.00, 10.48, 10.37, 0.000, 0.000, 0.000, 09:09:03.653
87, 10.88, 0.00, 14.28, 10.56, 0.000, 0.000, 0.000, 09:09:03.666
88, 13.58, 0.00, 23.26, 14.56, 0.000, 0.000, 0.000, 09:09:03.666
89, 17.18, 0.00, 18.42, 19.75, 0.000, 0.000, 0.000, 09:09:03.666
90, 12.78, 0.00, 15.13, 15.86, 0.000, 0.000, 0.000, 09:09:03.667
91, 12.90, 0.00, 17.39, 16.11, 0.000, 0.000, 0.000, 09:09:03.680
92, 15.10, 0.00, 18.87, 18.25, 0.000, 0.000, 0.000, 09:09:03.681
93, 19.57, 0.00, 20.69, 26.01, 0.000, 0.000, 0.000, 09:09:03.694
94, 13.06, 0.00, 14.42, 14.67, 0.000, 0.000, 0.000, 09:09:03.695
95, 10.92, 0.00, 12.16, 12.33, 0.000, 0.000, 0.000, 09:09:03.695
96, 15.08, 0.00, 23.44, 21.21, 0.000, 0.000, 0.000, 09:09:03.695
97, 18.73, 0.00, 22.05, 18.39, 0.000, 0.000, 0.000, 09:09:03.710
98, 10.94, 0.00, 8.80, 9.89, 0.000, 0.000, 0.000, 09:09:03.710
99, 14.52, 0.00, 14.74, 12.88, 0.000, 0.000, 0.000, 09:09:03.724
100, 17.46, 0.00, 18.69, 17.36, 0.000, 0.000, 0.000, 09:09:03.725
101, 12.20, 0.00, 15.97, 16.61, 0.000, 0.000, 0.000, 09:09:03.725
102, 15.93, 0.00, 14.08, 11.03, 0.000, 0.000, 0.000, 09:09:03.725
103, 8.87, 0.00, 15.79, 16.58, 0.000, 0.000, 0.000, 09:09:03.740
104, 18.64, 0.00, 16.52, 13.63, 0.000, 0.000, 0.000, 09:09:03.740
105, 15.66, 0.00, 20.66, 19.58, 0.000, 0.000, 0.000, 09:09:03.754
106, 17.56, 0.00, 18.97, 16.10, 0.000, 0.000, 0.000, 09:09:03.755
107, 10.81, 0.00, 15.04, 8.67, 0.000, 0.000, 0.000, 09:09:03.769
108, 15.23, 0.00, 14.86, 19.89, 0.000, 0.000, 0.000, 09:09:03.770
109, 16.25, 0.00, 21.63, 19.57, 0.000, 0.000, 0.000, 09:09:03.770
110, 11.86, 0.00, 14.83, 9.49, 0.000, 0.000, 0.000, 09:09:03.770
111, 10.88, 0.00, 17.61, 14.24, 0.000, 0.000, 0.000, 09:09:03.785
112, 18.13, 0.00, 19.29, 17.21, 0.000, 0.000, 0.000, 09:09:03.785
113, 18.42, 0.00, 16.62, 20.35, 0.000, 0.000, 0.000, 09:09:03.785
114, 13.35, 0.00, 18.87, 13.99, 0.000, 0.000, 0.000, 09:09:03.785
115, 15.51, 0.00, 17.35, 14.21, 0.000, 0.000, 0.000, 09:09:03.800
116, 16.67, 0.00, 20.39, 21.41, 0.000, 0.000, 0.000, 09:09:03.801
117, 19.14, 0.00, 18.99, 19.80, 0.000, 0.000, 0.000, 09:09:03.815
118, 11.50, 0.00, 13.53, 11.96, 0.000, 0.000, 0.000, 09:09:03.815
119, 10.64, 0.00, 15.03, 8.84, 0.000, 0.000, 0.000, 09:09:03.816
120, 17.50, 0.00, 21.70, 22.07, 0.000, 0.000, 0.000, 09:09:03.817
121, 18.65, 0.00, 23.46, 17.39, 0.000, 0.000, 0.000, 09:09:03.829
122, 10.75, 0.00, 10.07, 10.80, 0.000, 0.000, 0.000, 09:09:03.830
123, 9.35, 0.00, 14.94, 15.65, 0.000, 0.000, 0.000, 09:09:03.844
124, 17.91, 0.00, 20.63, 19.34, 0.000, 0.000, 0.000, 09:09:03.845
125, 18.47, 0.00, 17.16, 15.75, 0.000, 0.000, 0.000, 09:09:03.847
126, 12.30, 0.00, 12.53, 11.37, 0.000, 0.000, 0.000, 09:09:03.848
127, 10.07, 0.00, 17.82, 12.77, 0.000, 0.000, 0.000, 09:09:03.859
128, 19.07, 0.00, 20.57, 16.06, 0.000, 0.000, 0.000, 09:09:03.859
129, 17.76, 0.00, 23.64, 22.59, 0.000, 0.000, 0.000, 09:09:03.874
130, 13.22, 0.00, 11.67, 10.11, 0.000, 0.000, 0.000, 09:09:03.874
131, 13.76, 0.00, 12.75, 13.03, 0.000, 0.000, 0.000, 09:09:03.875
132, 17.23, 0.00, 16.47, 22.77, 0.000, 0.000, 0.000, 09:09:03.875
133, 16.58, 0.00, 19.62, 18.79, 0.000, 0.000, 0.000, 09:09:03.889
134, 9.51, 0.00, 15.12, 13.76, 0.000, 0.000, 0.000, 09:09:03.890
135, 13.88, 0.00, 16.46, 19.54, 0.000, 0.000, 0.000, 09:09:03.904
136, 15.51, 0.00, 21.38, 20.43, 0.000, 0.000, 0.000, 09:09:03.904
137, 15.77, 0.00, 18.15, 17.81, 0.000, 0.000, 0.000, 09:09:03.904
138, 10.91, 0.00, 14.84, 11.97, 0.000, 0.000, 0.000, 09:09:03.905
139, 14.08, 0.00, 10.94, 10.83, 0.000, 0.000, 0.000, 09:09:03.919
140, 17.48, 0.00, 16.88, 14.03, 0.000, 0.000, 0.000, 09:09:03.920
141, 16.62, 0.00, 21.03, 19.60, 0.000, 0.000, 0.000, 09:09:03.934
142, 6.97, 0.00, 14.68, 12.22, 0.000, 0.000, 0.000, 09:09:03.934
143, 9.98, 0.00, 14.92, 12.09, 0.000, 0.000, 0.000, 09:09:03.934
144, 17.98, 0.00, 20.95, 25.06, 0.000, 0.000, 0.000, 09:09:03.935
145, 16.09, 0.00, 20.67, 19.14, 0.000, 0.000, 0.000, 09:09:03.950
146, 11.42, 0.00, 12.47, 8.68, 0.000, 0.000, 0.000, 09:09:03.950
147, 13.36, 0.00, 16.66, 18.21, 0.000, 0.000, 0.000, 09:09:03.964
148, 15.73, 0.00, 23.42, 16.63, 0.000, 0.000, 0.000, 09:09:03.964
149, 14.90, 0.00, 18.46, 16.20, 0.000, 0.000, 0.000, 09:09:03.966
150, 12.95, 0.00, 11.31, 12.46, 0.000, 0.000, 0.000, 09:09:03.966
151, 16.64, 0.00, 15.59, 19.49, 0.000, 0.000, 0.000, 09:09:03.979
152, 13.75, 0.00, 17.93, 14.90, 0.000, 0.000, 0.000, 09:09:03.980
153, 18.87, 0.00, 25.43, 21.97, 0.000, 0.000, 0.000, 09:09:03.994
154, 12.47, 0.00, 13.69, 15.05, 0.000, 0.000, 0.000, 09:09:03.994
155, 9.87, 0.00, 13.14, 13.11, 0.000, 0.000, 0.000, 09:09:03.994
156, 17.67, 0.00, 21.03, 21.31, 0.000, 0.000, 0.000, 09:09:03.995
157, 21.11, 0.00, 19.30, 18.15, 0.000, 0.000, 0.000, 09:09:04.017
158, 11.36, 0.00, 6.69, 5.96, 0.000, 0.000, 0.000, 09:09:04.017
159, 16.25, 0.00, 16.26, 15.81, 0.000, 0.000, 0.000, 09:09:04.025
160, 14.11, 0.00, 21.84, 18.48, 0.000, 0.000, 0.000, 09:09:04.026
161, 16.62, 0.00, 20.30, 18.93, 0.000, 0.000, 0.000, 09:09:04.026
162, 11.13, 0.00, 12.05, 19.47, 0.000, 0.000, 0.000, 09:09:04.026
163, 14.59, 0.00, 16.69, 13.50, 0.000, 0.000, 0.000, 09:09:04.040
164, 16.22, 0.00, 19.99, 16.46, 0.000, 0.000, 0.000, 09:09:04.041
165, 21.79, 0.00, 25.13, 20.02, 0.000, 0.000, 0.000, 09:09:04.055
166, 14.22, 0.00, 16.32, 11.65, 0.000, 0.000, 0.000, 09:09:04.055
167, 10.19, 0.00, 12.80, 11.69, 0.000, 0.000, 0.000, 09:09:04.055
168, 14.38, 0.00, 20.65, 19.30, 0.000, 0.000, 0.000, 09:09:04.056
169, 14.77, 0.00, 20.66, 19.63, 0.000, 0.000, 0.000, 09:09:04.070
170, 14.53, 0.00, 11.55, 10.36, 0.000, 0.000, 0.000, 09:09:04.070
171, 14.50, 0.00, 16.58, 17.75, 0.000, 0.000, 0.000, 09:09:04.085
172, 18.62, 0.00, 20.98, 18.31, 0.000, 0.000, 0.000, 09:09:04.085
173, 13.11, 0.00, 12.70, 13.53, 0.000, 0.000, 0.000, 09:09:04.085
174, 15.74, 0.00, 14.20, 10.07, 0.000, 0.000, 0.000, 09:09:04.085
175, 13.82, 0.00, 16.70, 14.60, 0.000, 0.000, 0.000, 09:09:04.100
176, 12.93, 0.00, 23.62, 15.64, 0.000, 0.000, 0.000, 09:09:04.100
177, 19.50, 0.00, 21.52, 22.54, 0.000, 0.000, 0.000, 09:09:04.115
178, 12.00, 0.00, 13.56, 13.13, 0.000, 0.000, 0.000, 09:09:04.115
179, 7.65, 0.00, 15.00, 9.89, 0.000, 0.000, 0.000, 09:09:04.116
180, 18.68, 0.00, 19.53, 20.94, 0.000, 0.000, 0.000, 09:09:04.117
181, 13.81, 0.00, 15.69, 19.13, 0.000, 0.000, 0.000, 09:09:04.131
182, 11.90, 0.00, 16.70, 12.20, 0.000, 0.000, 0.000, 09:09:04.132
183, 14.08, 0.00, 13.90, 12.52, 0.000, 0.000, 0.000, 09:09:04.145
184, 17.55, 0.00, 19.40, 24.50, 0.000, 0.000, 0.000, 09:09:04.146
185, 17.01, 0.00, 21.47, 14.16, 0.000, 0.000, 0.000, 09:09:04.148
186, 12.41, 0.00, 12.63, 14.79, 0.000, 0.000, 0.000, 09:09:04.150
187, 12.67, 0.00, 15.21, 15.11, 0.000, 0.000, 0.000, 09:09:04.160
188, 15.77, 0.00, 18.22, 17.75, 0.000, 0.000, 0.000, 09:09:04.161
189, 17.51, 0.00, 19.50, 19.10, 0.000, 0.000, 0.000, 09:09:04.175
190, 12.65, 0.00, 13.72, 10.84, 0.000, 0.000, 0.000, 09:09:04.175
191, 9.06, 0.00, 15.67, 12.35, 0.000, 0.000, 0.000, 09:09:04.176
192, 20.52, 0.00, 21.64, 21.49, 0.000, 0.000, 0.000, 09:09:04.176
193, 19.43, 0.00, 21.11, 15.05, 0.000, 0.000, 0.000, 09:09:04.190
194, 11.38, 0.00, 16.35, 9.56, 0.000, 0.000, 0.000, 09:09:04.190
195, 13.01, 0.00, 12.53, 13.12, 0.000, 0.000, 0.000, 09:09:04.205
196, 19.36, 0.00, 22.31, 24.81, 0.000, 0.000, 0.000, 09:09:04.205
197, 15.42, 0.00, 13.22, 18.84, 0.000, 0.000, 0.000, 09:09:04.205
198, 13.47, 0.00, 14.31, 17.34, 0.000, 0.000, 0.000, 09:09:04.206
199, 12.61, 0.00, 12.75, 13.69, 0.000, 0.000, 0.000, 09:09:04.239
200, 20.11, 0.00, 18.44, 17.09, 0.000, 0.000, 0.000, 09:09:04.239
0, 11.71, 0.00, 23.02, 21.48, 0.000, 0.000, 0.000, 09:09:04.239
1, 11.92, 0.00, 11.09, 14.67, 0.000, 0.000, 0.000, 09:09:04.240
2, 9.69, 0.00, 14.69, 13.56, 0.000, 0.000, 0.000, 09:09:04.240
3, 18.91, 0.00, 24.46, 25.07, 0.000, 0.000, 0.000, 09:09:04.250
4, 11.74, 0.00, 16.85, 18.69, 0.000, 0.000, 0.000, 09:09:04.251
5, 7.13, 0.00, 7.11, 8.24, 0.000, 0.000, 0.000, 09:09:04.251
6, 16.26, 0.00, 13.73, 17.59, 0.000, 0.000, 0.000, 09:09:04.252
7, 16.65, 0.00, 19.68, 19.29, 0.000, 0.000, 0.000, 09:09:04.267
8, 14.04, 0.00, 12.27, 11.74, 0.000, 0.000, 0.000, 09:09:04.268
9, 12.67, 0.00, 16.00, 12.68, 0.000, 0.000, 0.000, 09:09:04.280
10, 11.14, 0.00, 17.57, 13.42, 0.000, 0.000, 0.000, 09:09:04.280
11, 17.87, 0.00, 20.32, 18.75, 0.000, 0.000, 0.000, 09:09:04.286
12, 18.93, 0.00, 20.59, 18.69, 0.000, 0.000, 0.000, 09:09:04.286
13, 11.18, 0.00, 14.55, 14.27, 0.000, 0.000, 0.000, 09:09:04.294
14, 11.13, 0.00, 14.66, 9.58, 0.000, 0.000, 0.000, 09:09:04.294
15, 19.10, 0.00, 22.14, 24.12, 0.000, 0.000, 0.000, 09:09:04.309
16, 16.99, 0.00, 16.05, 18.40, 0.000, 0.000, 0.000, 09:09:04.309
17, 12.31, 0.00, 8.20, 11.94, 0.000, 0.000, 0.000, 09:09:04.309
18, 15.84, 0.00, 20.05, 13.78, 0.000, 0.000, 0.000, 09:09:04.309
19, 15.17, 0.00, 20.12, 21.27, 0.000, 0.000, 0.000, 09:09:04.324
20, 14.14, 0.00, 13.38, 12.07, 0.000, 0.000, 0.000, 09:09:04.324
21, 11.56, 0.00, 14.30, 13.75, 0.000, 0.000, 0.000, 09:09:04.339
22, 15.59, 0.00, 15.34, 13.30, 0.000, 0.000, 0.000, 09:09:04.339
23, 13.75, 0.00, 18.14, 15.77, 0.000, 0.000, 0.000, 09:09:04.339
24, 16.21, 0.00, 20.09, 18.38, 0.000, 0.000, 0.000, 09:09:04.340
25, 9.28, 0.00, 15.95, 11.43, 0.000, 0.000, 0.000, 09:09:04.354
26, 13.18, 0.00, 13.30, 10.68, 0.000, 0.000, 0.000, 09:09:04.354
27, 18.55, 0.00, 27.22, 24.20, 0.000, 0.000, 0.000, 09:09:04.369
28, 19.90, 0.00, 20.27, 19.05, 0.000, 0.000, 0.000, 09:09:04.369
29, 7.01, 0.00, 11.14, 6.32, 0.000, 0.000, 0.000, 09:09:04.369
30, 13.67, 0.00, 15.36, 15.25, 0.000, 0.000, 0.000, 09:09:04.369
31, 16.67, 0.00, 18.77, 20.57, 0.000, 0.000, 0.000, 09:09:04.385
32, 14.54, 0.00, 20.40, 17.04, 0.000, 0.000, 0.000, 09:09:04.385
33, 14.47, 0.00, 15.24, 9.83, 0.000, 0.000, 0.000, 09:09:04.401
34, 15.43, 0.00, 19.90, 14.13, 0.000, 0.000, 0.000, 09:09:04.401
35, 18.92, 0.00, 19.39, 18.30, 0.000, 0.000, 0.000, 09:09:04.402
36, 19.93, 0.00, 20.80, 22.76, 0.000, 0.000, 0.000, 09:09:04.402
37, 11.93, 0.00, 9.78, 10.37, 0.000, 0.000, 0.000, 09:09:04.416
38, 16.43, 0.00, 13.24, 11.53, 0.000, 0.000, 0.000, 09:09:04.417
39, 21.69, 0.00, 23.96, 27.01, 0.000, 0.000, 0.000, 09:09:04.432
40, 17.09, 0.00, 20.55, 19.69, 0.000, 0.000, 0.000, 09:09:04.432
41, 9.53, 0.00, 13.29, 12.50, 0.000, 0.000, 0.000, 09:09:04.433
42, 14.92, 0.00, 19.14, 18.07, 0.000, 0.000, 0.000, 09:09:04.434
43, 19.21, 0.00, 24.11, 19.45, 0.000, 0.000, 0.000, 09:09:04.444
44, 13.73, 0.00, 18.20, 13.12, 0.000, 0.000, 0.000, 09:09:04.445
45, 11.73, 0.00, 15.08, 14.36, 0.000, 0.000, 0.000, 09:09:04.459
46, 15.94, 0.00, 13.29, 16.95, 0.000, 0.000, 0.000, 09:09:04.459
47, 14.68, 0.00, 19.04, 21.95, 0.000, 0.000, 0.000, 09:09:04.460
48, 16.77, 0.00, 12.73, 18.00, 0.000, 0.000, 0.000, 09:09:04.460
49, 15.74, 0.00, 15.09, 14.23, 0.000, 0.000, 0.000, 09:09:04.474
50, 13.29, 0.00, 17.06, 13.60, 0.000, 0.000, 0.000, 09:09:04.475
51, 15.45, 0.00, 24.28, 21.78, 0.000, 0.000, 0.000, 09:09:04.489
52, 21.01, 0.00, 22.04, 20.15, 0.000, 0.000, 0.000, 09:09:04.489
53, 11.20, 0.00, 12.16, 11.89, 0.000, 0.000, 0.000, 09:09:04.490
54, 16.57, 0.00, 18.48, 12.53, 0.000, 0.000, 0.000, 09:09:04.490
55, 15.90, 0.00, 23.07, 20.36, 0.000, 0.000, 0.000, 09:09:04.504
56, 12.78, 0.00, 13.64, 13.87, 0.000, 0.000, 0.000, 09:09:04.505
57, 12.62, 0.00, 14.45, 12.86, 0.000, 0.000, 0.000, 09:09:04.519
58, 11.82, 0.00, 14.60, 14.84, 0.000, 0.000, 0.000, 09:09:04.519
59, 12.06, 0.00, 18.99, 17.24, 0.000, 0.000, 0.000, 09:09:04.520
60, 16.99, 0.00, 18.40, 18.40, 0.000, 0.000, 0.000, 09:09:04.520
61, 12.10, 0.00, 15.60, 11.33, 0.000, 0.000, 0.000, 09:09:04.534
62, 10.24, 0.00, 12.23, 11.06, 0.000, 0.000, 0.000, 09:09:04.535
63, 15.70, 0.00, 20.35, 20.50, 0.000, 0.000, 0.000, 09:09:04.550
64, 13.96, 0.00, 17.25, 14.12, 0.000, 0.000, 0.000, 09:09:04.551
65, 10.65, 0.00, 9.69, 8.24, 0.000, 0.000, 0.000, 09:09:04.551
66, 13.16, 0.00, 14.81, 15.32, 0.000, 0.000, 0.000, 09:09:04.551
67, 14.17, 0.00, 21.69, 22.40, 0.000, 0.000, 0.000, 09:09:04.565
68, 16.20, 0.00, 15.57, 18.56, 0.000, 0.000, 0.000, 09:09:04.567
69, 13.13, 0.00, 12.61, 13.45, 0.000, 0.000, 0.000, 09:09:04.579
70, 16.04, 0.00, 17.03, 12.96, 0.000, 0.000, 0.000, 09:09:04.580
71, 17.15, 0.00, 20.34, 20.81, 0.000, 0.000, 0.000, 09:09:04.580
72, 17.12, 0.00, 17.98, 17.60, 0.000, 0.000, 0.000, 09:09:04.580
73, 10.02, 0.00, 13.37, 12.49, 0.000, 0.000, 0.000, 09:09:04.594
74, 9.61, 0.00, 12.63, 12.81, 0.000, 0.000, 0.000, 09:09:04.594
75, 15.86, 0.00, 24.13, 20.83, 0.000, 0.000, 0.000, 09:09:04.609
76, 14.41, 0.00, 21.07, 19.06, 0.000, 0.000, 0.000, 09:09:04.609
77, 7.23, 0.00, 8.64, 9.90, 0.000, 0.000, 0.000, 09:09:04.610
78, 12.02, 0.00, 18.23, 12.62, 0.000, 0.000, 0.000, 09:09:04.610
79, 17.53, 0.00, 20.93, 22.54, 0.000, 0.000, 0.000, 09:09:04.624
80, 13.34, 0.00, 16.90, 14.37, 0.000, 0.000, 0.000, 09:09:04.625
81, 14.46, 0.00, 13.97, 14.99, 0.000, 0.000, 0.000, 09:09:04.640
82, 12.16, 0.00, 19.36, 16.06, 0.000, 0.000, 0.000, 09:09:04.640
83, 15.91, 0.00, 20.07, 20.72, 0.000, 0.000, 0.000, 09:09:04.654
84, 18.24, 0.00, 21.32, 20.98, 0.000, 0.000, 0.000, 09:09:04.655
85, 13.20, 0.00, 11.23, 10.57, 0.000, 0.000, 0.000, 09:09:04.655
86, 13.97, 0.00, 20.44, 13.14, 0.000, 0.000, 0.000, 09:09:04.655
87, 19.27, 0.00, 24.05, 23.11, 0.000, 0.000, 0.000, 09:09:04.669
88, 17.25, 0.00, 18.10, 17.22, 0.000, 0.000, 0.000, 09:09:04.670
89, 12.52, 0.00, 10.01, 7.33, 0.000, 0.000, 0.000, 09:09:04.670
90, 18.02, 0.00, 18.49, 16.87, 0.000, 0.000, 0.000, 09:09:04.670
91, 20.66, 0.00, 25.41, 25.23, 0.000, 0.000, 0.000, 09:09:04.699
92, 9.66, 0.00, 19.71, 12.03, 0.000, 0.000, 0.000, 09:09:04.700
93, 11.77, 0.00, 13.14, 11.53, 0.000, 0.000, 0.000, 09:09:04.701
94, 14.01, 0.00, 18.99, 13.05, 0.000, 0.000, 0.000, 09:09:04.702
95, 14.34, 0.00, 22.54, 19.46, 0.000, 0.000, 0.000, 09:09:04.703
96, 16.75, 0.00, 18.98, 17.11, 0.000, 0.000, 0.000, 09:09:04.703
97, 11.88, 0.00, 10.62, 13.03, 0.000, 0.000, 0.000, 09:09:04.714
98, 13.48, 0.00, 12.07, 8.55, 0.000, 0.000, 0.000, 09:09:04.714
99, 21.18, 0.00, 25.81, 24.14, 0.000, 0.000, 0.000, 09:09:04.729
100, 16.81, 0.00, 17.24, 19.56, 0.000, 0.000, 0.000, 09:09:04.730
101, 10.86, 0.00, 10.08, 7.55, 0.000, 0.000, 0.000, 09:09:04.730
102, 16.62, 0.00, 14.88, 17.73, 0.000, 0.000, 0.000, 09:09:04.730
103, 19.81, 0.00, 23.59, 26.48, 0.000, 0.000, 0.000, 09:09:04.744
104, 12.74, 0.00, 14.57, 13.83, 0.000, 0.000, 0.000, 09:09:04.744
105, 11.94, 0.00, 14.31, 14.32, 0.000, 0.000, 0.000, 09:09:04.760
106, 13.65, 0.00, 16.28, 14.47, 0.000, 0.000, 0.000, 09:09:04.760
107, 16.37, 0.00, 20.96, 16.99, 0.000, 0.000, 0.000, 09:09:04.760
108, 15.30, 0.00, 19.29, 20.13, 0.000, 0.000, 0.000, 09:09:04.760
109, 8.56, 0.00, 9.83, 10.20, 0.000, 0.000, 0.000, 09:09:04.775
110, 12.29, 0.00, 15.35, 13.45, 0.000, 0.000, 0.000, 09:09:04.775
111, 19.22, 0.00, 24.67, 27.25, 0.000, 0.000, 0.000, 09:09:04.790
112, 13.14, 0.00, 20.10, 17.09, 0.000, 0.000, 0.000, 09:09:04.790
113, 11.73, 0.00, 14.11, 11.34, 0.000, 0.000, 0.000, 09:09:04.798
114, 13.53, 0.00, 15.63, 16.93, 0.000, 0.000, 0.000, 09:09:04.798
115, 18.13, 0.00, 23.10, 20.57, 0.000, 0.000, 0.000, 09:09:04.804
116, 13.96, 0.00, 11.02, 12.27, 0.000, 0.000, 0.000, 09:09:04.805
117, 14.74, 0.00, 13.95, 14.87, 0.000, 0.000, 0.000, 09:09:04.819
118, 13.45, 0.00, 18.22, 15.49, 0.000, 0.000, 0.000, 09:09:04.820
119, 13.95, 0.00, 22.54, 19.87, 0.000, 0.000, 0.000, 09:09:04.820
120, 16.28, 0.00, 18.28, 17.84, 0.000, 0.000, 0.000, 09:09:04.820
121, 16.56, 0.00, 17.52, 10.14, 0.000, 0.000, 0.000, 09:09:04.834
122, 13.51, 0.00, 16.59, 11.21, 0.000, 0.000, 0.000, 09:09:04.835
123, 18.23, 0.00, 26.57, 20.20, 0.000, 0.000, 0.000, 09:09:04.851
124, 20.62, 0.00, 17.97, 17.06, 0.000, 0.000, 0.000, 09:09:04.851
125, 6.24, 0.00, 11.12, 11.38, 0.000, 0.000, 0.000, 09:09:04.851
126, 14.31, 0.00, 15.10, 12.22, 0.000, 0.000, 0.000, 09:09:04.851
127, 19.97, 0.00, 22.16, 22.67, 0.000, 0.000, 0.000, 09:09:04.872
128, 16.26, 0.00, 11.25, 14.88, 0.000, 0.000, 0.000, 09:09:04.872
129, 9.93, 0.00, 12.30, 10.46, 0.000, 0.000, 0.000, 09:09:04.882
130, 14.38, 0.00, 21.05, 18.78, 0.000, 0.000, 0.000, 09:09:04.882
131, 15.04, 0.00, 21.78, 16.02, 0.000, 0.000, 0.000, 09:09:04.883
132, 15.20, 0.00, 17.11, 16.66, 0.000, 0.000, 0.000, 09:09:04.884
133, 11.88, 0.00, 10.26, 8.50, 0.000, 0.000, 0.000, 09:09:04.901
134, 14.33, 0.00, 13.41, 17.13, 0.000, 0.000, 0.000, 09:09:04.901
135, 20.92, 0.00, 24.94, 22.92, 0.000, 0.000, 0.000, 09:09:04.909
136, 15.93, 0.00, 13.53, 15.10, 0.000, 0.000, 0.000, 09:09:04.909
137, 12.77, 0.00, 14.30, 12.44, 0.000, 0.000, 0.000, 09:09:04.910
138, 12.33, 0.00, 16.87, 17.49, 0.000, 0.000, 0.000, 09:09:04.910
139, 17.40, 0.00, 24.43, 20.47, 0.000, 0.000, 0.000, 09:09:04.924
140, 14.76, 0.00, 13.54, 14.78, 0.000, 0.000, 0.000, 09:09:04.924
141, 10.60, 0.00, 16.47, 11.51, 0.000, 0.000, 0.000, 09:09:04.939
142, 12.80, 0.00, 16.46, 15.31, 0.000, 0.000, 0.000, 09:09:04.939
143, 15.87, 0.00, 19.54, 18.89, 0.000, 0.000, 0.000, 09:09:04.939
144, 13.65, 0.00, 17.55, 19.28, 0.000, 0.000, 0.000, 09:09:04.940
145, 11.37, 0.00, 11.41, 16.54, 0.000, 0.000, 0.000, 09:09:04.954
146, 9.49, 0.00, 12.19, 11.50, 0.000, 0.000, 0.000, 09:09:04.954
147, 19.33, 0.00, 24.86, 22.81, 0.000, 0.000, 0.000, 09:09:04.969
148, 13.99, 0.00, 16.43, 13.81, 0.000, 0.000, 0.000, 09:09:04.969
149, 11.73, 0.00, 12.10, 8.29, 0.000, 0.000, 0.000, 09:09:04.970
150, 16.41, 0.00, 17.66, 15.68, 0.000, 0.000, 0.000, 09:09:04.970
151, 19.40, 0.00, 21.47, 23.54, 0.000, 0.000, 0.000, 09:09:04.984
152, 11.32, 0.00, 13.03, 11.87, 0.000, 0.000, 0.000, 09:09:04.984
153, 10.23, 0.00, 13.48, 11.34, 0.000, 0.000, 0.000, 09:09:05.000
154, 15.00, 0.00, 15.00, 18.60, 0.000, 0.000, 0.000, 09:09:05.000
155, 14.78, 0.00, 18.21, 16.11, 0.000, 0.000, 0.000, 09:09:05.000
156, 10.96, 0.00, 15.95, 13.48, 0.000, 0.000, 0.000, 09:09:05.000
157, 14.09, 0.00, 10.95, 13.51, 0.000, 0.000, 0.000, 09:09:05.016
158, 12.20, 0.00, 13.65, 13.23, 0.000, 0.000, 0.000, 09:09:05.016
159, 19.31, 0.00, 27.94, 19.59, 0.000, 0.000, 0.000, 09:09:05.030
160, 17.82, 0.00, 20.93, 15.05, 0.000, 0.000, 0.000, 09:09:05.030
161, 12.20, 0.00, 10.40, 13.33, 0.000, 0.000, 0.000, 09:09:05.030
162, 16.16, 0.00, 18.78, 17.39, 0.000, 0.000, 0.000, 09:09:05.030
163, 19.81, 0.00, 25.34, 21.07, 0.000, 0.000, 0.000, 09:09:05.044
164, 17.82, 0.00, 15.39, 13.68, 0.000, 0.000, 0.000, 09:09:05.044
165, 13.55, 0.00, 15.34, 13.10, 0.000, 0.000, 0.000, 09:09:05.059
166, 17.64, 0.00, 19.02, 18.23, 0.000, 0.000, 0.000, 09:09:05.059
167, 16.07, 0.00, 18.76, 19.66, 0.000, 0.000, 0.000, 09:09:05.059
168, 18.54, 0.00, 21.11, 18.17, 0.000, 0.000, 0.000, 09:09:05.060
169, 10.60, 0.00, 11.26, 11.94, 0.000, 0.000, 0.000, 09:09:05.074
170, 11.35, 0.00, 15.16, 16.76, 0.000, 0.000, 0.000, 09:09:05.074
171, 16.98, 0.00, 23.78, 22.37, 0.000, 0.000, 0.000, 09:09:05.089
172, 14.81, 0.00, 16.07, 16.04, 0.000, 0.000, 0.000, 09:09:05.089
173, 8.64, 0.00, 10.28, 8.32, 0.000, 0.000, 0.000, 09:09:05.096
174, 14.84, 0.00, 16.21, 16.36, 0.000, 0.000, 0.000, 09:09:05.096
175, 17.83, 0.00, 22.84, 19.46, 0.000, 0.000, 0.000, 09:09:05.104
176, 13.65, 0.00, 16.64, 14.39, 0.000, 0.000, 0.000, 09:09:05.104
177, 12.24, 0.00, 16.59, 14.20, 0.000, 0.000, 0.000, 09:09:05.119
178, 15.68, 0.00, 17.60, 17.85, 0.000, 0.000, 0.000, 09:09:05.119
179, 22.35, 0.00, 22.07, 18.33, 0.000, 0.000, 0.000, 09:09:05.119
180, 16.07, 0.00, 18.51, 17.46, 0.000, 0.000, 0.000, 09:09:05.119
181, 11.39, 0.00, 12.51, 13.50, 0.000, 0.000, 0.000, 09:09:05.135
182, 11.26, 0.00, 15.77, 15.03, 0.000, 0.000, 0.000, 09:09:05.135
183, 18.00, 0.00, 24.00, 22.79, 0.000, 0.000, 0.000, 09:09:05.150
184, 16.19, 0.00, 15.31, 15.63, 0.000, 0.000, 0.000, 09:09:05.151
185, 7.69, 0.00, 9.39, 4.90, 0.000, 0.000, 0.000, 09:09:05.151
186, 16.71, 0.00, 21.23, 18.40, 0.000, 0.000, 0.000, 09:09:05.151
187, 15.12, 0.00, 19.82, 22.01, 0.000, 0.000, 0.000, 09:09:05.166
188, 15.06, 0.00, 12.47, 14.81, 0.000, 0.000, 0.000, 09:09:05.166
189, 13.12, 0.00, 13.28, 14.62, 0.000, 0.000, 0.000, 09:09:05.180
190, 17.23, 0.00, 18.71, 18.24, 0.000, 0.000, 0.000, 09:09:05.180
191, 16.92, 0.00, 21.15, 21.35, 0.000, 0.000, 0.000, 09:09:05.182
192, 15.91, 0.00, 19.36, 14.72, 0.000, 0.000, 0.000, 09:09:05.183
193, 9.55, 0.00, 9.40, 11.47, 0.000, 0.000, 0.000, 09:09:05.194
194, 10.46, 0.00, 16.12, 11.12, 0.000, 0.000, 0.000, 09:09:05.195
195, 19.94, 0.00, 25.40, 28.88, 0.000, 0.000, 0.000, 09:09:05.209
196, 15.61, 0.00, 16.74, 18.52, 0.000, 0.000, 0.000, 09:09:05.210
197, 9.33, 0.00, 13.34, 8.12, 0.000, 0.000, 0.000, 09:09:05.210
198, 17.35, 0.00, 16.89, 12.18, 0.000, 0.000, 0.000, 09:09:05.210
199, 18.48, 0.00, 25.30, 17.78, 0.000, 0.000, 0.000, 09:09:05.224
200, 12.93, 0.00, 18.51, 13.47, 0.000, 0.000, 0.000, 09:09:05.224
0, 11.77, 0.00, 13.71, 13.52, 0.000, 0.000, 0.000, 09:09:05.225
1, 17.06, 0.00, 16.88, 21.11, 0.000, 0.000, 0.000, 09:09:05.239
2, 19.00, 0.00, 19.99, 20.35, 0.000, 0.000, 0.000, 09:09:05.239
3, 17.18, 0.00, 18.84, 16.17, 0.000, 0.000, 0.000, 09:09:05.254
4, 8.14, 0.00, 12.71, 9.07, 0.000, 0.000, 0.000, 09:09:05.254
5, 15.80, 0.00, 16.27, 12.54, 0.000, 0.000, 0.000, 09:09:05.255
6, 22.31, 0.00, 22.72, 21.95, 0.000, 0.000, 0.000, 09:09:05.255
7, 13.52, 0.00, 16.19, 16.91, 0.000, 0.000, 0.000, 09:09:05.270
8, 12.59, 0.00, 11.42, 8.78, 0.000, 0.000, 0.000, 09:09:05.270
9, 18.58, 0.00, 24.44, 20.71, 0.000, 0.000, 0.000, 09:09:05.284
10, 20.23, 0.00, 20.97, 24.09, 0.000, 0.000, 0.000, 09:09:05.284
11, 10.19, 0.00, 12.95, 15.74, 0.000, 0.000, 0.000, 09:09:05.285
12, 12.21, 0.00, 11.41, 11.83, 0.000, 0.000, 0.000, 09:09:05.285
13, 12.05, 0.00, 18.44, 13.92, 0.000, 0.000, 0.000, 09:09:05.300
14, 16.25, 0.00, 18.60, 21.35, 0.000, 0.000, 0.000, 09:09:05.300
15, 15.82, 0.00, 15.28, 16.77, 0.000, 0.000, 0.000, 09:09:05.316
16, 6.74, 0.00, 11.17, 9.62, 0.000, 0.000, 0.000, 09:09:05.316
17, 8.98, 0.00, 14.37, 14.17, 0.000, 0.000, 0.000, 09:09:05.317
18, 18.17, 0.00, 22.58, 23.67, 0.000, 0.000, 0.000, 09:09:05.317
19, 13.93, 0.00, 15.41, 15.39, 0.000, 0.000, 0.000, 09:09:05.330
20, 13.45, 0.00, 11.45, 3.04, 0.000, 0.000, 0.000, 09:09:05.331
21, 16.16, 0.00, 18.98, 20.33, 0.000, 0.000, 0.000, 09:09:05.345
22, 17.76, 0.00, 17.59, 21.37, 0.000, 0.000, 0.000, 09:09:05.345
23, 16.30, 0.00, 17.59, 15.87, 0.000, 0.000, 0.000, 09:09:05.346
24, 12.87, 0.00, 13.60, 14.62, 0.000, 0.000, 0.000, 09:09:05.347
25, 15.70, 0.00, 17.49, 15.97, 0.000, 0.000, 0.000, 09:09:05.360
26, 12.45, 0.00, 18.34, 17.06, 0.000, 0.000, 0.000, 09:09:05.360
27, 14.41, 0.00, 18.98, 17.64, 0.000, 0.000, 0.000, 09:09:05.375
28, 13.98, 0.00, 13.90, 13.30, 0.000, 0.000, 0.000, 09:09:05.375
29, 11.39, 0.00, 15.42, 15.26, 0.000, 0.000, 0.000, 09:09:05.376
30, 19.32, 0.00, 20.88, 21.12, 0.000, 0.000, 0.000, 09:09:05.376
31, 13.35, 0.00, 19.28, 18.73, 0.000, 0.000, 0.000, 09:09:05.390
32, 6.50, 0.00, 8.58, 12.18, 0.000, 0.000, 0.000, 09:09:05.390
33, 17.87, 0.00, 21.66, 16.90, 0.000, 0.000, 0.000, 09:09:05.405
34, 19.40, 0.00, 20.61, 18.26, 0.000, 0.000, 0.000, 09:09:05.406
35, 11.51, 0.00, 15.91, 15.27, 0.000, 0.000, 0.000, 09:09:05.412
36, 11.24, 0.00, 12.78, 9.64, 0.000, 0.000, 0.000, 09:09:05.412
37, 17.95, 0.00, 19.50, 19.37, 0.000, 0.000, 0.000, 09:09:05.422
38, 16.44, 0.00, 20.16, 17.51, 0.000, 0.000, 0.000, 09:09:05.423
39, 14.77, 0.00, 17.43, 16.26, 0.000, 0.000, 0.000, 09:09:05.436
40, 11.18, 0.00, 12.24, 9.82, 0.000, 0.000, 0.000, 09:09:05.437
41, 18.19, 0.00, 19.48, 14.59, 0.000, 0.000, 0.000, 09:09:05.438
42, 16.85, 0.00, 22.75, 21.43, 0.000, 0.000, 0.000, 09:09:05.439
43, 10.76, 0.00, 17.76, 17.34, 0.000, 0.000, 0.000, 09:09:05.450
44, 10.67, 0.00, 9.20, 6.49, 0.000, 0.000, 0.000, 09:09:05.450
45, 11.07, 0.00, 21.63, 20.62, 0.000, 0.000, 0.000, 09:09:05.465
46, 16.19, 0.00, 22.79, 21.46, 0.000, 0.000, 0.000, 09:09:05.465
47, 11.22, 0.00, 13.83, 9.97, 0.000, 0.000, 0.000, 09:09:05.467
48, 11.56, 0.00, 14.59, 11.65, 0.000, 0.000, 0.000, 09:09:05.468
49, 13.83, 0.00, 17.98, 15.87, 0.000, 0.000, 0.000, 09:09:05.479
50, 17.47, 0.00, 17.76, 16.32, 0.000, 0.000, 0.000, 09:09:05.480
51, 16.46, 0.00, 20.23, 19.94, 0.000, 0.000, 0.000, 09:09:05.494
52, 13.03, 0.00, 12.72, 11.96, 0.000, 0.000, 0.000, 09:09:05.494
53, 13.02, 0.00, 20.75, 18.41, 0.000, 0.000, 0.000, 09:09:05.494
54, 19.26, 0.00, 21.90, 23.82, 0.000, 0.000, 0.000, 09:09:05.495
55, 11.34, 0.00, 15.15, 14.67, 0.000, 0.000, 0.000, 09:09:05.510
56, 11.42, 0.00, 8.87, 2.70, 0.000, 0.000, 0.000, 09:09:05.510
57, 19.13, 0.00, 19.63, 18.15, 0.000, 0.000, 0.000, 09:09:05.525
58, 21.60, 0.00, 24.77, 20.73, 0.000, 0.000, 0.000, 09:09:05.525
59, 11.17, 0.00, 13.57, 11.58, 0.000, 0.000, 0.000, 09:09:05.526
60, 9.31, 0.00, 14.25, 12.55, 0.000, 0.000, 0.000, 09:09:05.526
61, 15.32, 0.00, 18.44, 18.97, 0.000, 0.000, 0.000, 09:09:05.540
62, 22.67, 0.00, 21.84, 18.00, 0.000, 0.000, 0.000, 09:09:05.540
63, 14.36, 0.00, 17.50, 17.54, 0.000, 0.000, 0.000, 09:09:05.555
64, 10.42, 0.00, 11.08, 7.06, 0.000, 0.000, 0.000, 09:09:05.555
65, 12.01, 0.00, 20.25, 17.02, 0.000, 0.000, 0.000, 09:09:05.556
66, 18.19, 0.00, 18.99, 22.60, 0.000, 0.000, 0.000, 09:09:05.556
67, 14.99, 0.00, 20.14, 13.44, 0.000, 0.000, 0.000, 09:09:05.570
68, 11.40, 0.00, 9.05, 7.73, 0.000, 0.000, 0.000, 09:09:05.570
69, 11.37, 0.00, 21.01, 15.74, 0.000, 0.000, 0.000, 09:09:05.585
70, 20.74, 0.00, 24.57, 22.84, 0.000, 0.000, 0.000, 09:09:05.585
71, 11.39, 0.00, 12.58, 11.66, 0.000, 0.000, 0.000, 09:09:05.585
72, 7.78, 0.00, 14.16, 12.16, 0.000, 0.000, 0.000, 09:09:05.586
73, 19.71, 0.00, 19.92, 16.51, 0.000, 0.000, 0.000, 09:09:05.604
74, 17.91, 0.00, 18.56, 19.44, 0.000, 0.000, 0.000, 09:09:05.605
75, 16.93, 0.00, 17.68, 18.66, 0.000, 0.000, 0.000, 09:09:05.618
76, 12.92, 0.00, 14.72, 13.31, 0.000, 0.000, 0.000, 09:09:05.618
77, 13.32, 0.00, 20.22, 15.89, 0.000, 0.000, 0.000, 09:09:05.618
78, 20.04, 0.00, 20.65, 21.09, 0.000, 0.000, 0.000, 09:09:05.618
79, 16.42, 0.00, 16.08, 19.33, 0.000, 0.000, 0.000, 09:09:05.630
80, 15.03, 0.00, 12.36, 9.58, 0.000, 0.000, 0.000, 09:09:05.631
81, 13.94, 0.00, 18.45, 19.55, 0.000, 0.000, 0.000, 09:09:05.646
82, 14.85, 0.00, 21.06, 24.72, 0.000, 0.000, 0.000, 09:09:05.647
83, 11.72, 0.00, 13.76, 14.68, 0.000, 0.000, 0.000, 09:09:05.647
84, 15.15, 0.00, 14.51, 15.03, 0.000, 0.000, 0.000, 09:09:05.648
85, 19.75, 0.00, 21.99, 18.35, 0.000, 0.000, 0.000, 09:09:05.661
86, 15.59, 0.00, 18.97, 18.29, 0.000, 0.000, 0.000, 09:09:05.661
87, 11.56, 0.00, 16.92, 17.10, 0.000, 0.000, 0.000, 09:09:05.675
88, 14.50, 0.00, 17.75, 10.92, 0.000, 0.000, 0.000, 09:09:05.675
89, 17.76, 0.00, 18.95, 15.75, 0.000, 0.000, 0.000, 09:09:05.675
90, 20.78, 0.00, 22.13, 20.96, 0.000, 0.000, 0.000, 09:09:05.676
91, 15.95, 0.00, 17.18, 14.86, 0.000, 0.000, 0.000, 09:09:05.689
92, 6.34, 0.00, 8.47, 5.95, 0.000, 0.000, 0.000, 09:09:05.690
93, 14.54, 0.00, 18.66, 20.50, 0.000, 0.000, 0.000, 09:09:05.704
94, 19.56, 0.00, 18.22, 19.56, 0.000, 0.000, 0.000, 09:09:05.704
95, 11.48, 0.00, 13.16, 12.30, 0.000, 0.000, 0.000, 09:09:05.705
96, 15.77, 0.00, 15.47, 12.44, 0.000, 0.000, 0.000, 09:09:05.705
97, 11.50, 0.00, 18.38, 16.65, 0.000, 0.000, 0.000, 09:09:05.719
98, 15.86, 0.00, 21.12, 15.37, 0.000, 0.000, 0.000, 09:09:05.719
99, 12.06, 0.00, 19.30, 16.32, 0.000, 0.000, 0.000, 09:09:05.734
100, 9.90, 0.00, 10.79, 11.95, 0.000, 0.000, 0.000, 09:09:05.735
101, 14.54, 0.00, 16.35, 13.92, 0.000, 0.000, 0.000, 09:09:05.735
102, 18.89, 0.00, 20.89, 18.83, 0.000, 0.000, 0.000, 09:09:05.735
103, 16.87, 0.00, 14.66, 16.29, 0.000, 0.000, 0.000, 09:09:05.750
104, 5.75, 0.00, 10.19, 8.85, 0.000, 0.000, 0.000, 09:09:05.750
105, 15.07, 0.00, 21.66, 19.91, 0.000, 0.000, 0.000, 09:09:05.764
106, 20.53, 0.00, 20.24, 21.10, 0.000, 0.000, 0.000, 09:09:05.765
107, 16.36, 0.00, 15.81, 12.92, 0.000, 0.000, 0.000, 09:09:05.767
108, 11.44, 0.00, 12.49, 11.93, 0.000, 0.000, 0.000, 09:09:05.767
109, 15.03, 0.00, 16.36, 18.30, 0.000, 0.000, 0.000, 09:09:05.779
110, 13.28, 0.00, 19.52, 15.72, 0.000, 0.000, 0.000, 09:09:05.780
111, 14.04, 0.00, 17.47, 16.86, 0.000, 0.000, 0.000, 09:09:05.794
112, 11.03, 0.00, 13.29, 12.87, 0.000, 0.000, 0.000, 09:09:05.794
113, 17.30, 0.00, 21.18, 17.82, 0.000, 0.000, 0.000, 09:09:05.795
114, 19.91, 0.00, 25.02, 21.25, 0.000, 0.000, 0.000, 09:09:05.795
115, 12.75, 0.00, 8.71, 14.31, 0.000, 0.000, 0.000, 09:09:05.824
116, 9.71, 0.00, 10.20, 8.79, 0.000, 0.000, 0.000, 09:09:05.825
117, 16.87, 0.00, 17.44, 18.83, 0.000, 0.000, 0.000, 09:09:05.825
118, 21.15, 0.00, 21.59, 24.21, 0.000, 0.000, 0.000, 09:09:05.826
119, 16.36, 0.00, 13.56, 11.83, 0.000, 0.000, 0.000, 09:09:05.826
120, 8.82, 0.00, 10.24, 12.01, 0.000, 0.000, 0.000, 09:09:05.827
121, 14.55, 0.00, 21.11, 15.62, 0.000, 0.000, 0.000, 09:09:05.840
122, 14.00, 0.00, 18.18, 15.82, 0.000, 0.000, 0.000, 09:09:05.840
123, 15.76, 0.00, 18.52, 15.80, 0.000, 0.000, 0.000, 09:09:05.854
124, 10.14, 0.00, 15.30, 11.77, 0.000, 0.000, 0.000, 09:09:05.855
125, 16.05, 0.00, 19.25, 17.80, 0.000, 0.000, 0.000, 09:09:05.856
126, 18.76, 0.00, 23.88, 27.23, 0.000, 0.000, 0.000, 09:09:05.856
127, 12.85, 0.00, 14.32, 13.58, 0.000, 0.000, 0.000, 09:09:05.871
128, 11.27, 0.00, 10.52, 12.48, 0.000, 0.000, 0.000, 09:09:05.871
129, 15.74, 0.00, 19.48, 21.58, 0.000, 0.000, 0.000, 09:09:05.886
130, 19.50, 0.00, 23.65, 24.29, 0.000, 0.000, 0.000, 09:09:05.887
131, 12.67, 0.00, 14.44, 10.28, 0.000, 0.000, 0.000, 09:09:05.887
132, 12.36, 0.00, 10.42, 9.72, 0.000, 0.000, 0.000, 09:09:05.887
133, 17.96, 0.00, 19.96, 19.05, 0.000, 0.000, 0.000, 09:09:05.902
134, 13.80, 0.00, 18.35, 15.97, 0.000, 0.000, 0.000, 09:09:05.902
135, 12.89, 0.00, 16.15, 18.16, 0.000, 0.000, 0.000, 09:09:05.915
136, 8.36, 0.00, 11.92, 9.65, 0.000, 0.000, 0.000, 09:09:05.915
137, 14.80, 0.00, 17.18, 13.55, 0.000, 0.000, 0.000, 09:09:05.917
138, 16.01, 0.00, 21.96, 22.45, 0.000, 0.000, 0.000, 09:09:05.917
139, 14.69, 0.00, 16.06, 11.99, 0.000, 0.000, 0.000, 09:09:05.930
140, 11.00, 0.00, 10.47, 11.04, 0.000, 0.000, 0.000, 09:09:05.931
141, 18.92, 0.00, 22.22, 19.24, 0.000, 0.000, 0.000, 09:09:05.945
142, 16.13, 0.00, 22.25, 19.32, 0.000, 0.000, 0.000, 09:09:05.945
143, 12.51, 0.00, 9.91, 10.24, 0.000, 0.000, 0.000, 09:09:05.945
144, 11.43, 0.00, 11.37, 11.83, 0.000, 0.000, 0.000, 09:09:05.945
145, 13.72, 0.00, 21.01, 21.78, 0.000, 0.000, 0.000, 09:09:05.960
146, 17.22, 0.00, 20.96, 17.44, 0.000, 0.000, 0.000, 09:09:05.960
147, 14.99, 0.00, 19.74, 14.75, 0.000, 0.000, 0.000, 09:09:05.975
148, 10.75, 0.00, 17.77, 14.66, 0.000, 0.000, 0.000, 09:09:05.975
149, 13.99, 0.00, 17.81, 16.35, 0.000, 0.000, 0.000, 09:09:05.975
150, 17.51, 0.00, 22.62, 17.93, 0.000, 0.000, 0.000, 09:09:05.976
151, 17.20, 0.00, 12.26, 16.71, 0.000, 0.000, 0.000, 09:09:05.989
152, 14.82, 0.00, 13.87, 9.67, 0.000, 0.000, 0.000, 09:09:05.990
153, 16.97, 0.00, 22.20, 20.51, 0.000, 0.000, 0.000, 09:09:06.010
154, 18.93, 0.00, 24.30, 26.22, 0.000, 0.000, 0.000, 09:09:06.010
155, 13.44, 0.00, 12.11, 8.93, 0.000, 0.000, 0.000, 09:09:06.010
156, 7.46, 0.00, 14.10, 9.90, 0.000, 0.000, 0.000, 09:09:06.011
157, 16.31, 0.00, 20.80, 14.98, 0.000, 0.000, 0.000, 09:09:06.020
158, 17.89, 0.00, 16.67, 17.76, 0.000, 0.000, 0.000, 09:09:06.020
159, 12.08, 0.00, 18.83, 14.62, 0.000, 0.000, 0.000, 09:09:06.036
160, 14.58, 0.00, 14.17, 14.06, 0.000, 0.000, 0.000, 09:09:06.036
161, 14.87, 0.00, 18.58, 14.76, 0.000, 0.000, 0.000, 09:09:06.037
162, 20.62, 0.00, 20.09, 15.63, 0.000, 0.000, 0.000, 09:09:06.037
163, 16.04, 0.00, 16.14, 18.70, 0.000, 0.000, 0.000, 09:09:06.050
164, 10.08, 0.00, 11.58, 11.44, 0.000, 0.000, 0.000, 09:09:06.051
165, 14.20, 0.00, 20.52, 17.98, 0.000, 0.000, 0.000, 09:09:06.065
166, 17.66, 0.00, 21.74, 23.54, 0.000, 0.000, 0.000, 09:09:06.065
167, 11.29, 0.00, 14.79, 14.30, 0.000, 0.000, 0.000, 09:09:06.067
168, 8.63, 0.00, 10.99, 11.56, 0.000, 0.000, 0.000, 09:09:06.068
169, 15.00, 0.00, 18.80, 18.08, 0.000, 0.000, 0.000, 09:09:06.081
170, 16.98, 0.00, 21.85, 19.12, 0.000, 0.000, 0.000, 09:09:06.082
171, 14.73, 0.00, 15.59, 15.45, 0.000, 0.000, 0.000, 09:09:06.096
172, 14.83, 0.00, 14.47, 14.58, 0.000, 0.000, 0.000, 09:09:06.097
173, 14.34, 0.00, 13.11, 14.45, 0.000, 0.000, 0.000, 09:09:06.101
174, 13.99, 0.00, 19.50, 16.73, 0.000, 0.000, 0.000, 09:09:06.101
175, 12.83, 0.00, 12.17, 13.96, 0.000, 0.000, 0.000, 09:09:06.109
176, 14.82, 0.00, 16.02, 12.33, 0.000, 0.000, 0.000, 09:09:06.110
177, 18.98, 0.00, 24.59, 21.31, 0.000, 0.000, 0.000, 09:09:06.124
178, 16.17, 0.00, 23.02, 16.55, 0.000, 0.000, 0.000, 09:09:06.124
179, 13.23, 0.00, 14.20, 13.86, 0.000, 0.000, 0.000, 09:09:06.124
180, 12.18, 0.00, 15.86, 17.58, 0.000, 0.000, 0.000, 09:09:06.124
181, 15.87, 0.00, 17.81, 19.93, 0.000, 0.000, 0.000, 09:09:06.139
182, 16.61, 0.00, 19.20, 18.53, 0.000, 0.000, 0.000, 09:09:06.139
183, 14.08, 0.00, 18.93, 16.96, 0.000, 0.000, 0.000, 09:09:06.154
184, 18.05, 0.00, 19.11, 14.19, 0.000, 0.000, 0.000, 09:09:06.154
185, 16.22, 0.00, 18.64, 12.34, 0.000, 0.000, 0.000, 09:09:06.154
186, 21.22, 0.00, 25.01, 17.93, 0.000, 0.000, 0.000, 09:09:06.154
187, 14.91, 0.00, 15.41, 14.26, 0.000, 0.000, 0.000, 09:09:06.169
188, 11.85, 0.00, 10.40, 10.54, 0.000, 0.000, 0.000, 09:09:06.169
189, 16.78, 0.00, 17.47, 22.36, 0.000, 0.000, 0.000, 09:09:06.184
190, 17.13, 0.00, 20.92, 20.11, 0.000, 0.000, 0.000, 09:09:06.184
191, 12.73, 0.00, 16.32, 14.72, 0.000, 0.000, 0.000, 09:09:06.184
192, 14.44, 0.00, 16.43, 13.83, 0.000, 0.000, 0.000, 09:09:06.185
193, 17.31, 0.00, 18.97, 18.35, 0.000, 0.000, 0.000, 09:09:06.199
194, 15.11, 0.00, 14.62, 15.37, 0.000, 0.000, 0.000, 09:09:06.199
195, 11.91, 0.00, 15.50, 17.07, 0.000, 0.000, 0.000, 09:09:06.215
196, 10.20, 0.00, 9.48, 12.86, 0.000, 0.000, 0.000, 09:09:06.215
197, 14.80, 0.00, 18.72, 18.17, 0.000, 0.000, 0.000, 09:09:06.216
198, 15.39, 0.00, 19.98, 17.99, 0.000, 0.000, 0.000, 09:09:06.216
199, 13.18, 0.00, 15.58, 12.95, 0.000, 0.000, 0.000, 09:09:06.229
200, 11.51, 0.00, 10.88, 11.20, 0.000, 0.000, 0.000, 09:09:06.229
0, 14.88, 0.00, 21.50, 22.83, 0.000, 0.000, 0.000, 09:09:06.231
1, 17.87, 0.00, 25.71, 20.45, 0.000, 0.000, 0.000, 09:09:06.244
2, 16.30, 0.00, 11.02, 10.79, 0.000, 0.000, 0.000, 09:09:06.244
3, 10.56, 0.00, 15.78, 10.98, 0.000, 0.000, 0.000, 09:09:06.260
4, 17.83, 0.00, 19.75, 20.14, 0.000, 0.000, 0.000, 09:09:06.260
5, 13.50, 0.00, 18.47, 18.05, 0.000, 0.000, 0.000, 09:09:06.266
6, 8.88, 0.00, 16.58, 13.88, 0.000, 0.000, 0.000, 09:09:06.266
7, 14.13, 0.00, 11.22, 13.90, 0.000, 0.000, 0.000, 09:09:06.275
8, 19.09, 0.00, 18.61, 19.61, 0.000, 0.000, 0.000, 09:09:06.275
9, 16.85, 0.00, 22.83, 21.65, 0.000, 0.000, 0.000, 09:09:06.290
10, 13.75, 0.00, 14.29, 18.83, 0.000, 0.000, 0.000, 09:09:06.290
11, 11.40, 0.00, 12.66, 9.52, 0.000, 0.000, 0.000, 09:09:06.290
12, 14.16, 0.00, 21.85, 14.59, 0.000, 0.000, 0.000, 09:09:06.290
13, 17.80, 0.00, 21.79, 19.14, 0.000, 0.000, 0.000, 09:09:06.305
14, 10.53, 0.00, 10.19, 8.66, 0.000, 0.000, 0.000, 09:09:06.305
15, 14.17, 0.00, 15.04, 11.82, 0.000, 0.000, 0.000, 09:09:06.320
16, 15.25, 0.00, 19.28, 18.73, 0.000, 0.000, 0.000, 09:09:06.320
17, 15.78, 0.00, 15.95, 16.86, 0.000, 0.000, 0.000, 09:09:06.320
18, 11.34, 0.00, 13.54, 15.07, 0.000, 0.000, 0.000, 09:09:06.320
19, 9.76, 0.00, 13.17, 12.61, 0.000, 0.000, 0.000, 09:09:06.335
20, 12.86, 0.00, 17.08, 13.45, 0.000, 0.000, 0.000, 09:09:06.335
21, 18.77, 0.00, 22.24, 22.04, 0.000, 0.000, 0.000, 09:09:06.351
22, 13.64, 0.00, 18.60, 17.74, 0.000, 0.000, 0.000, 09:09:06.351
23, 9.79, 0.00, 13.21, 13.74, 0.000, 0.000, 0.000, 09:09:06.352
24, 18.67, 0.00, 24.29, 22.10, 0.000, 0.000, 0.000, 09:09:06.352
25, 20.97, 0.00, 23.42, 22.59, 0.000, 0.000, 0.000, 09:09:06.365
26, 10.90, 0.00, 13.18, 10.14, 0.000, 0.000, 0.000, 09:09:06.365
27, 9.55, 0.00, 17.09, 12.11, 0.000, 0.000, 0.000, 09:09:06.381
28, 15.68, 0.00, 21.66, 22.56, 0.000, 0.000, 0.000, 09:09:06.381
29, 18.36, 0.00, 16.14, 17.41, 0.000, 0.000, 0.000, 09:09:06.381
30, 14.26, 0.00, 12.26, 11.94, 0.000, 0.000, 0.000, 09:09:06.382
31, 17.72, 0.00, 17.22, 13.72, 0.000, 0.000, 0.000, 09:09:06.395
32, 19.99, 0.00, 19.28, 17.73, 0.000, 0.000, 0.000, 09:09:06.395
33, 19.44, 0.00, 23.53, 22.47, 0.000, 0.000, 0.000, 09:09:06.410
34, 7.70, 0.00, 10.57, 11.27, 0.000, 0.000, 0.000, 09:09:06.410
35, 7.95, 0.00, 10.80, 8.82, 0.000, 0.000, 0.000, 09:09:06.410
36, 18.33, 0.00, 21.68, 21.16, 0.000, 0.000, 0.000, 09:09:06.411
37, 17.68, 0.00, 21.48, 18.14, 0.000, 0.000, 0.000, 09:09:06.425
38, 10.92, 0.00, 10.99, 8.41, 0.000, 0.000, 0.000, 09:09:06.425
39, 11.43, 0.00, 15.45, 14.40, 0.000, 0.000, 0.000, 09:09:06.440
40, 13.90, 0.00, 22.46, 19.97, 0.000, 0.000, 0.000, 09:09:06.440
41, 17.82, 0.00, 19.95, 18.54, 0.000, 0.000, 0.000, 09:09:06.448
42, 11.45, 0.00, 14.42, 14.65, 0.000, 0.000, 0.000, 09:09:06.448
43, 10.22, 0.00, 11.37, 16.97, 0.000, 0.000, 0.000, 09:09:06.455
44, 15.17, 0.00, 19.78, 15.81, 0.000, 0.000, 0.000, 09:09:06.455
45, 14.65, 0.00, 21.73, 19.80, 0.000, 0.000, 0.000, 09:09:06.469
46, 14.70, 0.00, 15.54, 13.83, 0.000, 0.000, 0.000, 09:09:06.470
47, 11.23, 0.00, 13.35, 8.44, 0.000, 0.000, 0.000, 09:09:06.470
48, 20.85, 0.00, 21.51, 21.57, 0.000, 0.000, 0.000, 09:09:06.470
49, 17.27, 0.00, 20.22, 21.75, 0.000, 0.000, 0.000, 09:09:06.485
50, 9.45, 0.00, 8.61, 11.83, 0.000, 0.000, 0.000, 09:09:06.486
51, 16.59, 0.00, 15.37, 14.74, 0.000, 0.000, 0.000, 09:09:06.501
52, 16.74, 0.00, 22.06, 22.12, 0.000, 0.000, 0.000, 09:09:06.501
53, 16.70, 0.00, 19.12, 15.24, 0.000, 0.000, 0.000, 09:09:06.502
54, 15.37, 0.00, 13.63, 13.53, 0.000, 0.000, 0.000, 09:09:06.503
55, 12.33, 0.00, 13.65, 9.86, 0.000, 0.000, 0.000, 09:09:06.517
56, 18.90, 0.00, 18.67, 15.73, 0.000, 0.000, 0.000, 09:09:06.517
57, 19.01, 0.00, 20.25, 20.60, 0.000, 0.000, 0.000, 09:09:06.531
58, 10.90, 0.00, 15.29, 15.26, 0.000, 0.000, 0.000, 09:09:06.531
59, 7.91, 0.00, 13.32, 11.16, 0.000, 0.000, 0.000, 09:09:06.532
60, 19.06, 0.00, 21.52, 18.62, 0.000, 0.000, 0.000, 09:09:06.532
61, 17.48, 0.00, 20.01, 18.53, 0.000, 0.000, 0.000, 09:09:06.544
62, 14.85, 0.00, 13.62, 11.89, 0.000, 0.000, 0.000, 09:09:06.545
63, 11.25, 0.00, 14.82, 14.10, 0.000, 0.000, 0.000, 09:09:06.559
64, 18.47, 0.00, 20.18, 17.52, 0.000, 0.000, 0.000, 09:09:06.559
65, 13.53, 0.00, 21.79, 17.49, 0.000, 0.000, 0.000, 09:09:06.560
66, 15.62, 0.00, 14.70, 16.84, 0.000, 0.000, 0.000, 09:09:06.560
67, 14.43, 0.00, 14.71, 17.48, 0.000, 0.000, 0.000, 09:09:06.574
68, 14.43, 0.00, 17.66, 16.29, 0.000, 0.000, 0.000, 09:09:06.575
69, 17.14, 0.00, 24.83, 24.95, 0.000, 0.000, 0.000, 09:09:06.589
70, 10.81, 0.00, 13.53, 14.05, 0.000, 0.000, 0.000, 09:09:06.589
71, 13.02, 0.00, 14.19, 11.89, 0.000, 0.000, 0.000, 09:09:06.590
72, 18.40, 0.00, 18.88, 19.90, 0.000, 0.000, 0.000, 09:09:06.590
73, 17.06, 0.00, 21.01, 21.70, 0.000, 0.000, 0.000, 09:09:06.604
74, 9.03, 0.00, 10.39, 8.02, 0.000, 0.000, 0.000, 09:09:06.605
75, 15.38, 0.00, 16.38, 19.53, 0.000, 0.000, 0.000, 09:09:06.619
76, 15.46, 0.00, 20.13, 17.19, 0.000, 0.000, 0.000, 09:09:06.619
77, 14.50, 0.00, 20.10, 17.91, 0.000, 0.000, 0.000, 09:09:06.620
78, 9.96, 0.00, 13.20, 15.51, 0.000, 0.000, 0.000, 09:09:06.620
79, 14.12, 0.00, 15.29, 13.27, 0.000, 0.000, 0.000, 09:09:06.636
80, 17.27, 0.00, 15.76, 15.70, 0.000, 0.000, 0.000, 09:09:06.636
81, 17.36, 0.00, 20.83, 18.93, 0.000, 0.000, 0.000, 09:09:06.650
82, 12.01, 0.00, 14.17, 11.94, 0.000, 0.000, 0.000, 09:09:06.651
83, 11.48, 0.00, 14.78, 8.41, 0.000, 0.000, 0.000, 09:09:06.651
84, 19.78, 0.00, 22.85, 21.76, 0.000, 0.000, 0.000, 09:09:06.651
85, 16.80, 0.00, 17.15, 18.86, 0.000, 0.000, 0.000, 09:09:06.665
86, 10.74, 0.00, 10.61, 10.96, 0.000, 0.000, 0.000, 09:09:06.665
87, 13.96, 0.00, 14.17, 14.09, 0.000, 0.000, 0.000, 09:09:06.681
88, 16.91, 0.00, 21.62, 21.32, 0.000, 0.000, 0.000, 09:09:06.681
89, 15.06, 0.00, 16.06, 19.53, 0.000, 0.000, 0.000, 09:09:06.681
90, 15.61, 0.00, 19.02, 12.33, 0.000, 0.000, 0.000, 09:09:06.681
91, 14.56, 0.00, 13.16, 12.32, 0.000, 0.000, 0.000, 09:09:06.695
92, 14.96, 0.00, 20.59, 17.86, 0.000, 0.000, 0.000, 09:09:06.695
93, 18.14, 0.00, 21.12, 23.12, 0.000, 0.000, 0.000, 09:09:06.709
94, 6.91, 0.00, 15.95, 11.42, 0.000, 0.000, 0.000, 09:09:06.710
95, 10.97, 0.00, 11.49, 8.51, 0.000, 0.000, 0.000, 09:09:06.710
96, 16.24, 0.00, 20.85, 21.36, 0.000, 0.000, 0.000, 09:09:06.710
97, 14.34, 0.00, 20.14, 19.93, 0.000, 0.000, 0.000, 09:09:06.725
98, 10.71, 0.00, 10.31, 9.38, 0.000, 0.000, 0.000, 09:09:06.725
99, 14.48, 0.00, 16.78, 15.29, 0.000, 0.000, 0.000, 09:09:06.740
100, 18.04, 0.00, 23.44, 21.02, 0.000, 0.000, 0.000, 09:09:06.740
101, 16.05, 0.00, 20.92, 18.52, 0.000, 0.000, 0.000, 09:09:06.748
102, 11.12, 0.00, 13.60, 10.60, 0.000, 0.000, 0.000, 09:09:06.748
103, 17.17, 0.00, 13.34, 14.68, 0.000, 0.000, 0.000, 09:09:06.755
104, 16.21, 0.00, 19.14, 15.94, 0.000, 0.000, 0.000, 09:09:06.755
105, 16.05, 0.00, 20.09, 21.08, 0.000, 0.000, 0.000, 09:09:06.771
106, 15.11, 0.00, 9.42, 16.98, 0.000, 0.000, 0.000, 09:09:06.771
107, 14.43, 0.00, 13.56, 12.59, 0.000, 0.000, 0.000, 09:09:06.772
108, 15.92, 0.00, 21.10, 18.42, 0.000, 0.000, 0.000, 09:09:06.772
109, 17.96, 0.00, 22.21, 20.10, 0.000, 0.000, 0.000, 09:09:06.785
110, 10.94, 0.00, 11.60, 8.74, 0.000, 0.000, 0.000, 09:09:06.785
111, 15.05, 0.00, 15.20, 16.73, 0.000, 0.000, 0.000, 09:09:06.800
112, 18.06, 0.00, 23.43, 19.98, 0.000, 0.000, 0.000, 09:09:06.800
113, 14.98, 0.00, 16.74, 15.61, 0.000, 0.000, 0.000, 09:09:06.801
114, 8.99, 0.00, 10.61, 13.15, 0.000, 0.000, 0.000, 09:09:06.801
115, 13.13, 0.00, 17.40, 12.68, 0.000, 0.000, 0.000, 09:09:06.815
116, 21.19, 0.00, 21.60, 17.98, 0.000, 0.000, 0.000, 09:09:06.816
117, 16.45, 0.00, 20.84, 19.00, 0.000, 0.000, 0.000, 09:09:06.831
118, 11.48, 0.00, 10.12, 10.51, 0.000, 0.000, 0.000, 09:09:06.831
119, 11.46, 0.00, 15.55, 7.95, 0.000, 0.000, 0.000, 09:09:06.831
120, 17.06, 0.00, 20.27, 18.84, 0.000, 0.000, 0.000, 09:09:06.832
121, 18.86, 0.00, 22.96, 21.01, 0.000, 0.000, 0.000, 09:09:06.845
122, 10.57, 0.00, 12.47, 11.63, 0.000, 0.000, 0.000, 09:09:06.845
123, 13.38, 0.00, 15.76, 16.27, 0.000, 0.000, 0.000, 09:09:06.860
124, 18.95, 0.00, 21.27, 21.28, 0.000, 0.000, 0.000, 09:09:06.860
125, 14.41, 0.00, 17.85, 15.01, 0.000, 0.000, 0.000, 09:09:06.860
126, 13.89, 0.00, 16.26, 10.72, 0.000, 0.000, 0.000, 09:09:06.861
127, 8.91, 0.00, 13.15, 12.86, 0.000, 0.000, 0.000, 09:09:06.874
128, 12.77, 0.00, 19.51, 20.24, 0.000, 0.000, 0.000, 09:09:06.875
129, 17.97, 0.00, 21.18, 19.48, 0.000, 0.000, 0.000, 09:09:06.889
130, 12.35, 0.00, 15.36, 13.53, 0.000, 0.000, 0.000, 09:09:06.890
131, 15.01, 0.00, 13.50, 10.85, 0.000, 0.000, 0.000, 09:09:06.890
132, 16.16, 0.00, 22.68, 19.73, 0.000, 0.000, 0.000, 09:09:06.890
133, 16.97, 0.00, 19.07, 22.66, 0.000, 0.000, 0.000, 09:09:06.905
134, 13.01, 0.00, 10.16, 9.37, 0.000, 0.000, 0.000, 09:09:06.905
135, 10.24, 0.00, 15.24, 16.73, 0.000, 0.000, 0.000, 09:09:06.920
136, 18.85, 0.00, 21.43, 23.22, 0.000, 0.000, 0.000, 09:09:06.920
137, 18.83, 0.00, 16.51, 18.21, 0.000, 0.000, 0.000, 09:09:06.920
138, 8.17, 0.00, 14.06, 10.65, 0.000, 0.000, 0.000, 09:09:06.921
