%OpenBCI Raw EEG Data
%
%Sample Rate = 200.0 Hz
%First Column = SampleIndex
%Last Column = Timestamp 
%Other Columns = EEG data in microvolts followed by Accel Data (in G) interleaved with Aux Data
0, 12.09, 0.00, 15.66, 12.70, 0.000, 0.000, 0.000, 09:49:44.488, 7
1, 15.76, 0.00, 23.22, 21.23, 0.000, 0.000, 0.000, 09:49:44.502, 7
2, 17.15, 0.00, 21.20, 18.53, 0.000, 0.000, 0.000, 09:49:44.504, 7
3, 12.54, 0.00, 10.22, 13.22, 0.000, 0.000, 0.000, 09:49:44.510, 7
4, 12.61, 0.00, 10.58, 14.71, 0.000, 0.000, 0.000, 09:49:44.511, 7
5, 12.75, 0.00, 21.53, 17.14, 0.000, 0.000, 0.000, 09:49:44.525, 7
6, 16.48, 0.00, 19.35, 17.64, 0.000, 0.000, 0.000, 09:49:44.527, 7
7, 13.22, 0.00, 14.11, 14.30, 0.000, 0.000, 0.000, 09:49:44.528, 7
8, 12.53, 0.00, 16.83, 10.81, 0.000, 0.000, 0.000, 09:49:44.530, 7
9, 16.01, 0.00, 19.71, 19.24, 0.000, 0.000, 0.000, 09:49:44.540, 7
10, 17.56, 0.00, 19.97, 19.25, 0.000, 0.000, 0.000, 09:49:44.541, 7
11, 11.69, 0.00, 15.08, 15.92, 0.000, 0.000, 0.000, 09:49:44.542, 7
12, 7.67, 0.00, 15.37, 13.53, 0.000, 0.000, 0.000, 09:49:44.543, 7
13, 14.30, 0.00, 20.25, 17.49, 0.000, 0.000, 0.000, 09:49:44.554, 7
14, 14.40, 0.00, 20.16, 17.51, 0.000, 0.000, 0.000, 09:49:44.556, 7
15, 14.49, 0.00, 12.34, 16.33, 0.000, 0.000, 0.000, 09:49:44.570, 7
16, 12.75, 0.00, 15.45, 14.15, 0.000, 0.000, 0.000, 09:49:44.573, 7
17, 15.31, 0.00, 21.26, 18.67, 0.000, 0.000, 0.000, 09:49:44.575, 7
18, 15.08, 0.00, 21.55, 20.57, 0.000, 0.000, 0.000, 09:49:44.578, 7
19, 11.62, 0.00, 17.37, 17.53, 0.000, 0.000, 0.000, 09:49:44.584, 7
20, 15.84, 0.00, 12.88, 15.31, 0.000, 0.000, 0.000, 09:49:44.585, 7
21, 17.62, 0.00, 17.48, 19.92, 0.000, 0.000, 0.000, 09:49:44.602, 7
22, 17.22, 0.00, 20.79, 19.24, 0.000, 0.000, 0.000, 09:49:44.605, 7
23, 11.39, 0.00, 11.43, 10.79, 0.000, 0.000, 0.000, 09:49:44.607, 7
24, 12.86, 0.00, 13.86, 11.74, 0.000, 0.000, 0.000, 09:49:44.610, 7
25, 17.43, 0.00, 20.68, 21.15, 0.000, 0.000, 0.000, 09:49:44.614, 7
26, 17.59, 0.00, 21.91, 18.91, 0.000, 0.000, 0.000, 09:49:44.615, 7
27, 15.36, 0.00, 15.95, 12.22, 0.000, 0.000, 0.000, 09:49:44.628, 7
28, 13.16, 0.00, 15.00, 14.30, 0.000, 0.000, 0.000, 09:49:44.629, 7
29, 18.36, 0.00, 23.58, 18.35, 0.000, 0.000, 0.000, 09:49:44.630, 7
30, 18.48, 0.00, 18.80, 18.07, 0.000, 0.000, 0.000, 09:49:44.631, 7
31, 14.53, 0.00, 16.03, 13.11, 0.000, 0.000, 0.000, 09:49:44.644, 7
32, 13.66, 0.00, 15.61, 13.45, 0.000, 0.000, 0.000, 09:49:44.645, 7
33, 14.45, 0.00, 20.36, 21.43, 0.000, 0.000, 0.000, 09:49:44.675, 7
34, 11.02, 0.00, 19.55, 15.79, 0.000, 0.000, 0.000, 09:49:44.676, 7
35, 9.81, 0.00, 15.78, 9.22, 0.000, 0.000, 0.000, 09:49:44.677, 7
36, 12.13, 0.00, 12.60, 13.39, 0.000, 0.000, 0.000, 09:49:44.677, 7
37, 16.67, 0.00, 23.18, 13.75, 0.000, 0.000, 0.000, 09:49:44.678, 7
38, 13.99, 0.00, 15.41, 20.62, 0.000, 0.000, 0.000, 09:49:44.679, 7
39, 13.55, 0.00, 15.19, 15.28, 0.000, 0.000, 0.000, 09:49:44.679, 7
40, 13.68, 0.00, 15.97, 12.29, 0.000, 0.000, 0.000, 09:49:44.680, 7
41, 14.62, 0.00, 22.92, 20.23, 0.000, 0.000, 0.000, 09:49:44.689, 7
42, 17.70, 0.00, 16.61, 12.20, 0.000, 0.000, 0.000, 09:49:44.690, 7
43, 14.79, 0.00, 14.28, 14.25, 0.000, 0.000, 0.000, 09:49:44.704, 7
44, 12.31, 0.00, 12.71, 16.57, 0.000, 0.000, 0.000, 09:49:44.706, 7
45, 16.62, 0.00, 17.76, 20.05, 0.000, 0.000, 0.000, 09:49:44.720, 7
46, 17.07, 0.00, 18.94, 17.86, 0.000, 0.000, 0.000, 09:49:44.721, 7
47, 13.42, 0.00, 10.84, 12.88, 0.000, 0.000, 0.000, 09:49:44.723, 7
48, 11.17, 0.00, 14.46, 15.69, 0.000, 0.000, 0.000, 09:49:44.724, 7
49, 18.05, 0.00, 15.83, 16.36, 0.000, 0.000, 0.000, 09:49:44.749, 7
50, 18.70, 0.00, 21.54, 20.11, 0.000, 0.000, 0.000, 09:49:44.750, 7
51, 16.13, 0.00, 17.49, 14.87, 0.000, 0.000, 0.000, 09:49:44.750, 7
52, 10.81, 0.00, 10.31, 12.14, 0.000, 0.000, 0.000, 09:49:44.752, 7
53, 16.86, 0.00, 19.26, 16.29, 0.000, 0.000, 0.000, 09:49:44.756, 7
54, 18.20, 0.00, 20.74, 22.16, 0.000, 0.000, 0.000, 09:49:44.757, 7
55, 10.20, 0.00, 16.01, 15.29, 0.000, 0.000, 0.000, 09:49:44.764, 7
56, 15.29, 0.00, 13.75, 17.54, 0.000, 0.000, 0.000, 09:49:44.764, 7
57, 13.30, 0.00, 18.77, 17.01, 0.000, 0.000, 0.000, 09:49:44.779, 7
58, 17.11, 0.00, 23.44, 17.28, 0.000, 0.000, 0.000, 09:49:44.779, 7
59, 12.44, 0.00, 16.27, 13.67, 0.000, 0.000, 0.000, 09:49:44.780, 7
60, 9.95, 0.00, 14.76, 12.45, 0.000, 0.000, 0.000, 09:49:44.780, 7
61, 16.72, 0.00, 18.43, 22.92, 0.000, 0.000, 0.000, 09:49:44.794, 7
62, 17.21, 0.00, 20.69, 18.60, 0.000, 0.000, 0.000, 09:49:44.795, 7
63, 13.37, 0.00, 12.16, 12.94, 0.000, 0.000, 0.000, 09:49:44.811, 7
64, 16.28, 0.00, 13.60, 13.33, 0.000, 0.000, 0.000, 09:49:44.811, 7
65, 19.26, 0.00, 21.48, 20.61, 0.000, 0.000, 0.000, 09:49:44.812, 7
66, 16.70, 0.00, 17.03, 17.11, 0.000, 0.000, 0.000, 09:49:44.812, 7
67, 7.70, 0.00, 13.76, 10.96, 0.000, 0.000, 0.000, 09:49:44.824, 7
68, 15.17, 0.00, 17.15, 17.81, 0.000, 0.000, 0.000, 09:49:44.824, 7
69, 15.23, 0.00, 24.05, 19.40, 0.000, 0.000, 0.000, 09:49:44.839, 7
70, 19.60, 0.00, 20.04, 18.34, 0.000, 0.000, 0.000, 09:49:44.839, 7
71, 10.33, 0.00, 11.95, 15.15, 0.000, 0.000, 0.000, 09:49:44.840, 7
72, 11.78, 0.00, 15.06, 13.83, 0.000, 0.000, 0.000, 09:49:44.840, 7
73, 17.68, 0.00, 17.07, 15.97, 0.000, 0.000, 0.000, 09:49:44.855, 7
74, 14.15, 0.00, 19.90, 15.82, 0.000, 0.000, 0.000, 09:49:44.857, 7
75, 11.23, 0.00, 15.80, 13.71, 0.000, 0.000, 0.000, 09:49:44.870, 7
76, 13.80, 0.00, 15.44, 12.87, 0.000, 0.000, 0.000, 09:49:44.871, 7
77, 18.55, 0.00, 20.55, 18.97, 0.000, 0.000, 0.000, 09:49:44.871, 7
78, 16.30, 0.00, 18.09, 18.14, 0.000, 0.000, 0.000, 09:49:44.872, 7
79, 15.90, 0.00, 15.37, 13.81, 0.000, 0.000, 0.000, 09:49:44.899, 7
80, 12.64, 0.00, 16.55, 14.92, 0.000, 0.000, 0.000, 09:49:44.899, 7
81, 15.18, 0.00, 17.59, 20.77, 0.000, 0.000, 0.000, 09:49:44.899, 7
82, 12.41, 0.00, 22.07, 19.42, 0.000, 0.000, 0.000, 09:49:44.900, 7
83, 12.24, 0.00, 13.72, 14.41, 0.000, 0.000, 0.000, 09:49:44.900, 7
84, 9.82, 0.00, 16.38, 14.80, 0.000, 0.000, 0.000, 09:49:44.900, 7
85, 16.84, 0.00, 19.11, 21.88, 0.000, 0.000, 0.000, 09:49:44.914, 7
86, 16.80, 0.00, 21.20, 16.74, 0.000, 0.000, 0.000, 09:49:44.914, 7
87, 13.19, 0.00, 13.59, 10.84, 0.000, 0.000, 0.000, 09:49:44.929, 7
88, 13.09, 0.00, 14.85, 15.04, 0.000, 0.000, 0.000, 09:49:44.929, 7
89, 17.95, 0.00, 20.70, 17.04, 0.000, 0.000, 0.000, 09:49:44.929, 7
90, 17.77, 0.00, 19.15, 19.24, 0.000, 0.000, 0.000, 09:49:44.929, 7
91, 12.74, 0.00, 12.78, 9.51, 0.000, 0.000, 0.000, 09:49:44.950, 7
92, 16.79, 0.00, 14.36, 15.12, 0.000, 0.000, 0.000, 09:49:44.951, 7
93, 16.37, 0.00, 22.11, 18.21, 0.000, 0.000, 0.000, 09:49:44.958, 7
94, 15.39, 0.00, 17.94, 18.93, 0.000, 0.000, 0.000, 09:49:44.959, 7
95, 10.79, 0.00, 12.30, 14.04, 0.000, 0.000, 0.000, 09:49:44.959, 7
96, 15.46, 0.00, 19.43, 17.14, 0.000, 0.000, 0.000, 09:49:44.959, 7
97, 16.92, 0.00, 17.82, 19.80, 0.000, 0.000, 0.000, 09:49:44.974, 7
98, 14.76, 0.00, 21.60, 17.68, 0.000, 0.000, 0.000, 09:49:44.974, 7
99, 9.19, 0.00, 10.81, 10.60, 0.000, 0.000, 0.000, 09:49:44.989, 7
100, 14.40, 0.00, 13.22, 13.80, 0.000, 0.000, 0.000, 09:49:44.989, 7
101, 20.25, 0.00, 23.60, 19.57, 0.000, 0.000, 0.000, 09:49:44.989, 7
102, 16.39, 0.00, 22.12, 19.48, 0.000, 0.000, 0.000, 09:49:44.989, 7
103, 13.84, 0.00, 12.50, 8.20, 0.000, 0.000, 0.000, 09:49:45.003, 7
104, 12.11, 0.00, 11.63, 14.95, 0.000, 0.000, 0.000, 09:49:45.004, 7
105, 13.60, 0.00, 17.65, 17.41, 0.000, 0.000, 0.000, 09:49:45.019, 7
106, 14.85, 0.00, 17.77, 17.54, 0.000, 0.000, 0.000, 09:49:45.019, 7
107, 12.76, 0.00, 14.74, 9.58, 0.000, 0.000, 0.000, 09:49:45.019, 7
108, 12.14, 0.00, 11.95, 16.62, 0.000, 0.000, 0.000, 09:49:45.020, 7
109, 14.50, 0.00, 18.05, 17.53, 0.000, 0.000, 0.000, 09:49:45.034, 7
110, 16.15, 0.00, 20.98, 19.57, 0.000, 0.000, 0.000, 09:49:45.034, 7
111, 15.25, 0.00, 15.23, 12.03, 0.000, 0.000, 0.000, 09:49:45.050, 7
112, 15.09, 0.00, 9.68, 12.22, 0.000, 0.000, 0.000, 09:49:45.051, 7
113, 13.63, 0.00, 21.86, 19.35, 0.000, 0.000, 0.000, 09:49:45.051, 7
114, 15.44, 0.00, 19.25, 18.11, 0.000, 0.000, 0.000, 09:49:45.051, 7
115, 10.19, 0.00, 18.40, 14.59, 0.000, 0.000, 0.000, 09:49:45.065, 7
116, 9.79, 0.00, 11.80, 15.16, 0.000, 0.000, 0.000, 09:49:45.065, 7
117, 20.03, 0.00, 22.92, 17.49, 0.000, 0.000, 0.000, 09:49:45.080, 7
118, 11.96, 0.00, 19.34, 16.08, 0.000, 0.000, 0.000, 09:49:45.080, 7
119, 12.55, 0.00, 12.28, 11.33, 0.000, 0.000, 0.000, 09:49:45.082, 7
120, 12.59, 0.00, 15.31, 13.60, 0.000, 0.000, 0.000, 09:49:45.082, 7
121, 15.05, 0.00, 19.01, 21.48, 0.000, 0.000, 0.000, 09:49:45.095, 7
122, 18.70, 0.00, 19.36, 20.25, 0.000, 0.000, 0.000, 09:49:45.096, 7
123, 13.18, 0.00, 16.10, 10.57, 0.000, 0.000, 0.000, 09:49:45.109, 7
124, 11.93, 0.00, 16.29, 14.16, 0.000, 0.000, 0.000, 09:49:45.112, 7
125, 17.96, 0.00, 18.38, 21.51, 0.000, 0.000, 0.000, 09:49:45.115, 7
126, 17.82, 0.00, 18.88, 20.42, 0.000, 0.000, 0.000, 09:49:45.116, 7
127, 13.01, 0.00, 17.74, 15.03, 0.000, 0.000, 0.000, 09:49:45.125, 7
128, 14.01, 0.00, 14.41, 13.45, 0.000, 0.000, 0.000, 09:49:45.125, 7
129, 14.49, 0.00, 23.03, 16.31, 0.000, 0.000, 0.000, 09:49:45.156, 7
130, 17.01, 0.00, 19.39, 18.52, 0.000, 0.000, 0.000, 09:49:45.157, 7
131, 14.05, 0.00, 15.10, 13.54, 0.000, 0.000, 0.000, 09:49:45.157, 7
132, 14.33, 0.00, 17.18, 11.36, 0.000, 0.000, 0.000, 09:49:45.158, 7
133, 19.41, 0.00, 17.60, 19.99, 0.000, 0.000, 0.000, 09:49:45.158, 7
134, 17.45, 0.00, 22.03, 20.06, 0.000, 0.000, 0.000, 09:49:45.158, 7
135, 15.28, 0.00, 14.84, 13.91, 0.000, 0.000, 0.000, 09:49:45.159, 7
136, 13.84, 0.00, 17.12, 17.59, 0.000, 0.000, 0.000, 09:49:45.159, 7
137, 21.21, 0.00, 21.01, 21.25, 0.000, 0.000, 0.000, 09:49:45.170, 7
138, 14.88, 0.00, 17.82, 15.54, 0.000, 0.000, 0.000, 09:49:45.170, 7
139, 11.97, 0.00, 13.47, 11.99, 0.000, 0.000, 0.000, 09:49:45.184, 7
140, 12.54, 0.00, 19.80, 14.28, 0.000, 0.000, 0.000, 09:49:45.185, 7
141, 15.83, 0.00, 18.67, 18.66, 0.000, 0.000, 0.000, 09:49:45.199, 7
142, 13.41, 0.00, 20.06, 15.54, 0.000, 0.000, 0.000, 09:49:45.199, 7
143, 12.81, 0.00, 14.94, 14.74, 0.000, 0.000, 0.000, 09:49:45.201, 7
144, 12.03, 0.00, 13.84, 16.61, 0.000, 0.000, 0.000, 09:49:45.201, 7
145, 21.31, 0.00, 20.60, 19.97, 0.000, 0.000, 0.000, 09:49:45.214, 7
146, 18.49, 0.00, 17.18, 19.05, 0.000, 0.000, 0.000, 09:49:45.214, 7
147, 13.81, 0.00, 16.15, 12.10, 0.000, 0.000, 0.000, 09:49:45.229, 7
148, 10.31, 0.00, 15.76, 12.35, 0.000, 0.000, 0.000, 09:49:45.229, 7
149, 14.32, 0.00, 17.18, 19.07, 0.000, 0.000, 0.000, 09:49:45.230, 7
150, 14.64, 0.00, 17.29, 13.03, 0.000, 0.000, 0.000, 09:49:45.230, 7
151, 9.33, 0.00, 13.29, 12.03, 0.000, 0.000, 0.000, 09:49:45.244, 7
152, 13.84, 0.00, 13.24, 15.70, 0.000, 0.000, 0.000, 09:49:45.244, 7
153, 19.84, 0.00, 23.15, 24.41, 0.000, 0.000, 0.000, 09:49:45.259, 7
154, 14.46, 0.00, 18.55, 19.34, 0.000, 0.000, 0.000, 09:49:45.260, 7
155, 12.27, 0.00, 12.73, 11.28, 0.000, 0.000, 0.000, 09:49:45.260, 7
156, 15.14, 0.00, 11.09, 14.81, 0.000, 0.000, 0.000, 09:49:45.260, 7
157, 17.35, 0.00, 18.50, 22.41, 0.000, 0.000, 0.000, 09:49:45.274, 7
158, 16.81, 0.00, 17.48, 18.60, 0.000, 0.000, 0.000, 09:49:45.274, 7
159, 16.95, 0.00, 14.14, 14.62, 0.000, 0.000, 0.000, 09:49:45.290, 7
160, 12.03, 0.00, 16.29, 12.58, 0.000, 0.000, 0.000, 09:49:45.290, 7
161, 16.27, 0.00, 21.87, 22.48, 0.000, 0.000, 0.000, 09:49:45.304, 7
162, 17.19, 0.00, 19.17, 13.56, 0.000, 0.000, 0.000, 09:49:45.304, 7
163, 11.76, 0.00, 13.88, 11.27, 0.000, 0.000, 0.000, 09:49:45.304, 7
164, 11.18, 0.00, 18.72, 14.79, 0.000, 0.000, 0.000, 09:49:45.305, 7
165, 16.34, 0.00, 21.60, 20.51, 0.000, 0.000, 0.000, 09:49:45.319, 7
166, 18.97, 0.00, 20.26, 14.47, 0.000, 0.000, 0.000, 09:49:45.320, 7
167, 14.90, 0.00, 11.34, 13.38, 0.000, 0.000, 0.000, 09:49:45.321, 7
168, 13.04, 0.00, 11.20, 14.70, 0.000, 0.000, 0.000, 09:49:45.321, 7
169, 14.70, 0.00, 19.50, 16.28, 0.000, 0.000, 0.000, 09:49:45.350, 7
170, 12.87, 0.00, 22.49, 16.20, 0.000, 0.000, 0.000, 09:49:45.350, 7
171, 16.88, 0.00, 17.73, 11.98, 0.000, 0.000, 0.000, 09:49:45.351, 7
172, 14.24, 0.00, 16.80, 17.92, 0.000, 0.000, 0.000, 09:49:45.352, 7
173, 13.60, 0.00, 22.84, 17.92, 0.000, 0.000, 0.000, 09:49:45.353, 7
174, 15.14, 0.00, 19.30, 17.64, 0.000, 0.000, 0.000, 09:49:45.354, 7
175, 13.17, 0.00, 17.84, 13.94, 0.000, 0.000, 0.000, 09:49:45.365, 7
176, 12.67, 0.00, 14.57, 12.79, 0.000, 0.000, 0.000, 09:49:45.366, 7
177, 16.33, 0.00, 19.13, 20.95, 0.000, 0.000, 0.000, 09:49:45.379, 7
178, 15.15, 0.00, 20.26, 18.90, 0.000, 0.000, 0.000, 09:49:45.380, 7
179, 11.29, 0.00, 12.27, 13.28, 0.000, 0.000, 0.000, 09:49:45.381, 7
180, 14.22, 0.00, 15.79, 15.51, 0.000, 0.000, 0.000, 09:49:45.382, 7
181, 17.13, 0.00, 17.92, 20.25, 0.000, 0.000, 0.000, 09:49:45.395, 7
182, 14.89, 0.00, 20.33, 15.55, 0.000, 0.000, 0.000, 09:49:45.397, 7
183, 11.43, 0.00, 16.98, 14.54, 0.000, 0.000, 0.000, 09:49:45.410, 7
184, 15.61, 0.00, 12.77, 12.27, 0.000, 0.000, 0.000, 09:49:45.411, 7
185, 15.44, 0.00, 18.97, 16.95, 0.000, 0.000, 0.000, 09:49:45.411, 7
186, 18.04, 0.00, 20.47, 17.59, 0.000, 0.000, 0.000, 09:49:45.412, 7
187, 14.36, 0.00, 13.49, 14.26, 0.000, 0.000, 0.000, 09:49:45.431, 7
188, 9.27, 0.00, 12.73, 11.11, 0.000, 0.000, 0.000, 09:49:45.432, 7
189, 17.02, 0.00, 22.22, 18.88, 0.000, 0.000, 0.000, 09:49:45.440, 7
190, 13.36, 0.00, 18.27, 17.99, 0.000, 0.000, 0.000, 09:49:45.441, 7
191, 14.21, 0.00, 13.51, 15.40, 0.000, 0.000, 0.000, 09:49:45.442, 7
192, 15.55, 0.00, 17.99, 11.37, 0.000, 0.000, 0.000, 09:49:45.443, 7
193, 17.48, 0.00, 25.48, 23.34, 0.000, 0.000, 0.000, 09:49:45.462, 7
194, 14.59, 0.00, 18.48, 21.48, 0.000, 0.000, 0.000, 09:49:45.463, 7
195, 15.21, 0.00, 14.90, 8.86, 0.000, 0.000, 0.000, 09:49:45.470, 7
196, 14.42, 0.00, 13.87, 15.10, 0.000, 0.000, 0.000, 09:49:45.471, 7
197, 14.32, 0.00, 19.06, 18.53, 0.000, 0.000, 0.000, 09:49:45.472, 7
198, 16.57, 0.00, 22.46, 19.58, 0.000, 0.000, 0.000, 09:49:45.472, 7
199, 9.68, 0.00, 15.08, 11.89, 0.000, 0.000, 0.000, 09:49:45.484, 7
200, 13.79, 0.00, 13.99, 13.53, 0.000, 0.000, 0.000, 09:49:45.485, 7
0, 15.09, 0.00, 18.07, 17.59, 0.000, 0.000, 0.000, 09:49:45.486, 7
1, 14.86, 0.00, 18.24, 16.37, 0.000, 0.000, 0.000, 09:49:45.500, 7
2, 9.19, 0.00, 9.98, 12.03, 0.000, 0.000, 0.000, 09:49:45.500, 7
3, 13.42, 0.00, 15.36, 13.67, 0.000, 0.000, 0.000, 09:49:45.514, 7
4, 17.15, 0.00, 18.80, 18.85, 0.000, 0.000, 0.000, 09:49:45.515, 7
5, 17.73, 0.00, 17.44, 20.83, 0.000, 0.000, 0.000, 09:49:45.515, 7
6, 14.32, 0.00, 14.17, 15.74, 0.000, 0.000, 0.000, 09:49:45.515, 7
7, 15.32, 0.00, 12.17, 13.17, 0.000, 0.000, 0.000, 09:49:45.530, 7
8, 13.65, 0.00, 21.26, 19.26, 0.000, 0.000, 0.000, 09:49:45.530, 7
9, 14.40, 0.00, 19.50, 14.90, 0.000, 0.000, 0.000, 09:49:45.544, 7
10, 11.26, 0.00, 12.39, 11.76, 0.000, 0.000, 0.000, 09:49:45.545, 7
11, 11.33, 0.00, 13.17, 13.08, 0.000, 0.000, 0.000, 09:49:45.545, 7
12, 17.63, 0.00, 20.54, 19.54, 0.000, 0.000, 0.000, 09:49:45.545, 7
13, 18.45, 0.00, 21.44, 17.31, 0.000, 0.000, 0.000, 09:49:45.559, 7
14, 11.76, 0.00, 15.07, 14.28, 0.000, 0.000, 0.000, 09:49:45.560, 7
15, 15.63, 0.00, 17.41, 17.49, 0.000, 0.000, 0.000, 09:49:45.574, 7
16, 18.60, 0.00, 24.90, 21.01, 0.000, 0.000, 0.000, 09:49:45.575, 7
17, 16.76, 0.00, 20.25, 17.06, 0.000, 0.000, 0.000, 09:49:45.575, 7
18, 9.73, 0.00, 12.85, 11.76, 0.000, 0.000, 0.000, 09:49:45.575, 7
19, 15.79, 0.00, 14.62, 15.40, 0.000, 0.000, 0.000, 09:49:45.589, 7
20, 14.76, 0.00, 19.33, 18.55, 0.000, 0.000, 0.000, 09:49:45.590, 7
21, 12.17, 0.00, 17.31, 18.32, 0.000, 0.000, 0.000, 09:49:45.605, 7
22, 11.43, 0.00, 14.57, 13.60, 0.000, 0.000, 0.000, 09:49:45.606, 7
23, 12.67, 0.00, 16.00, 11.88, 0.000, 0.000, 0.000, 09:49:45.608, 7
24, 16.94, 0.00, 22.49, 20.75, 0.000, 0.000, 0.000, 09:49:45.609, 7
25, 22.76, 0.00, 19.88, 19.04, 0.000, 0.000, 0.000, 09:49:45.626, 7
26, 13.35, 0.00, 11.63, 12.82, 0.000, 0.000, 0.000, 09:49:45.626, 7
27, 10.76, 0.00, 15.89, 11.42, 0.000, 0.000, 0.000, 09:49:45.638, 7
28, 16.22, 0.00, 19.27, 17.82, 0.000, 0.000, 0.000, 09:49:45.639, 7
29, 20.16, 0.00, 19.68, 22.85, 0.000, 0.000, 0.000, 09:49:45.641, 7
30, 12.44, 0.00, 13.33, 13.45, 0.000, 0.000, 0.000, 09:49:45.642, 7
31, 11.45, 0.00, 17.58, 13.94, 0.000, 0.000, 0.000, 09:49:45.649, 7
32, 16.44, 0.00, 19.11, 20.95, 0.000, 0.000, 0.000, 09:49:45.649, 7
33, 16.76, 0.00, 20.27, 17.36, 0.000, 0.000, 0.000, 09:49:45.665, 7
34, 15.10, 0.00, 13.29, 15.49, 0.000, 0.000, 0.000, 09:49:45.665, 7
35, 9.14, 0.00, 16.20, 12.79, 0.000, 0.000, 0.000, 09:49:45.665, 7
36, 16.51, 0.00, 19.50, 17.68, 0.000, 0.000, 0.000, 09:49:45.666, 7
37, 15.58, 0.00, 18.21, 18.23, 0.000, 0.000, 0.000, 09:49:45.678, 7
38, 10.29, 0.00, 11.78, 12.18, 0.000, 0.000, 0.000, 09:49:45.679, 7
39, 13.37, 0.00, 12.01, 10.93, 0.000, 0.000, 0.000, 09:49:45.695, 7
40, 16.77, 0.00, 19.48, 19.40, 0.000, 0.000, 0.000, 09:49:45.695, 7
41, 14.81, 0.00, 19.39, 17.52, 0.000, 0.000, 0.000, 09:49:45.696, 7
42, 10.95, 0.00, 13.43, 17.15, 0.000, 0.000, 0.000, 09:49:45.696, 7
43, 15.64, 0.00, 13.19, 14.48, 0.000, 0.000, 0.000, 09:49:45.708, 7
44, 19.38, 0.00, 18.39, 19.20, 0.000, 0.000, 0.000, 09:49:45.709, 7
45, 18.72, 0.00, 18.99, 20.98, 0.000, 0.000, 0.000, 09:49:45.724, 7
46, 11.93, 0.00, 14.27, 10.92, 0.000, 0.000, 0.000, 09:49:45.724, 7
47, 12.31, 0.00, 13.35, 11.75, 0.000, 0.000, 0.000, 09:49:45.724, 7
48, 15.34, 0.00, 19.34, 15.63, 0.000, 0.000, 0.000, 09:49:45.724, 7
49, 14.56, 0.00, 18.56, 16.88, 0.000, 0.000, 0.000, 09:49:45.739, 7
50, 13.13, 0.00, 18.28, 16.74, 0.000, 0.000, 0.000, 09:49:45.740, 7
51, 11.39, 0.00, 14.45, 15.55, 0.000, 0.000, 0.000, 09:49:45.756, 7
52, 18.39, 0.00, 20.05, 16.54, 0.000, 0.000, 0.000, 09:49:45.756, 7
53, 14.48, 0.00, 18.76, 16.72, 0.000, 0.000, 0.000, 09:49:45.757, 7
54, 13.81, 0.00, 16.52, 13.83, 0.000, 0.000, 0.000, 09:49:45.759, 7
55, 13.06, 0.00, 16.72, 16.55, 0.000, 0.000, 0.000, 09:49:45.795, 7
56, 20.28, 0.00, 23.29, 22.63, 0.000, 0.000, 0.000, 09:49:45.795, 7
57, 18.21, 0.00, 17.25, 17.71, 0.000, 0.000, 0.000, 09:49:45.795, 7
58, 14.01, 0.00, 13.70, 10.69, 0.000, 0.000, 0.000, 09:49:45.796, 7
59, 12.02, 0.00, 15.67, 15.80, 0.000, 0.000, 0.000, 09:49:45.797, 7
60, 14.87, 0.00, 19.12, 20.70, 0.000, 0.000, 0.000, 09:49:45.798, 7
61, 16.60, 0.00, 19.47, 19.68, 0.000, 0.000, 0.000, 09:49:45.799, 7
62, 12.75, 0.00, 15.67, 11.21, 0.000, 0.000, 0.000, 09:49:45.801, 7
63, 11.43, 0.00, 17.30, 15.90, 0.000, 0.000, 0.000, 09:49:45.815, 7
64, 19.75, 0.00, 22.02, 18.02, 0.000, 0.000, 0.000, 09:49:45.815, 7
65, 12.09, 0.00, 17.52, 20.17, 0.000, 0.000, 0.000, 09:49:45.815, 7
66, 8.95, 0.00, 10.06, 11.87, 0.000, 0.000, 0.000, 09:49:45.815, 7
67, 12.63, 0.00, 14.30, 12.15, 0.000, 0.000, 0.000, 09:49:45.829, 7
68, 13.30, 0.00, 19.52, 13.61, 0.000, 0.000, 0.000, 09:49:45.830, 7
69, 18.41, 0.00, 18.02, 18.60, 0.000, 0.000, 0.000, 09:49:45.845, 7
70, 14.35, 0.00, 15.39, 13.54, 0.000, 0.000, 0.000, 09:49:45.846, 7
71, 11.38, 0.00, 16.72, 13.99, 0.000, 0.000, 0.000, 09:49:45.846, 7
72, 19.44, 0.00, 25.57, 21.51, 0.000, 0.000, 0.000, 09:49:45.846, 7
73, 18.40, 0.00, 20.15, 19.70, 0.000, 0.000, 0.000, 09:49:45.859, 7
74, 14.82, 0.00, 12.60, 15.27, 0.000, 0.000, 0.000, 09:49:45.859, 7
75, 13.13, 0.00, 18.20, 14.20, 0.000, 0.000, 0.000, 09:49:45.875, 7
76, 17.87, 0.00, 17.26, 17.65, 0.000, 0.000, 0.000, 09:49:45.875, 7
77, 15.66, 0.00, 17.69, 18.99, 0.000, 0.000, 0.000, 09:49:45.875, 7
78, 11.83, 0.00, 13.78, 11.43, 0.000, 0.000, 0.000, 09:49:45.875, 7
79, 11.09, 0.00, 12.44, 13.98, 0.000, 0.000, 0.000, 09:49:45.896, 7
80, 17.00, 0.00, 18.85, 18.14, 0.000, 0.000, 0.000, 09:49:45.896, 7
81, 15.29, 0.00, 20.71, 14.64, 0.000, 0.000, 0.000, 09:49:45.904, 7
82, 7.18, 0.00, 14.76, 14.94, 0.000, 0.000, 0.000, 09:49:45.905, 7
83, 6.81, 0.00, 16.00, 14.74, 0.000, 0.000, 0.000, 09:49:45.906, 7
84, 16.40, 0.00, 20.53, 18.51, 0.000, 0.000, 0.000, 09:49:45.906, 7
85, 15.93, 0.00, 19.66, 17.61, 0.000, 0.000, 0.000, 09:49:45.934, 7
86, 18.39, 0.00, 12.75, 14.94, 0.000, 0.000, 0.000, 09:49:45.936, 7
87, 14.30, 0.00, 17.33, 15.33, 0.000, 0.000, 0.000, 09:49:45.937, 7
88, 17.98, 0.00, 21.13, 20.84, 0.000, 0.000, 0.000, 09:49:45.938, 7
89, 14.56, 0.00, 19.14, 18.98, 0.000, 0.000, 0.000, 09:49:45.939, 7
90, 12.98, 0.00, 12.82, 14.49, 0.000, 0.000, 0.000, 09:49:45.939, 7
91, 13.07, 0.00, 17.40, 15.27, 0.000, 0.000, 0.000, 09:49:45.950, 7
92, 17.58, 0.00, 19.86, 19.77, 0.000, 0.000, 0.000, 09:49:45.951, 7
93, 17.34, 0.00, 19.59, 20.29, 0.000, 0.000, 0.000, 09:49:45.965, 7
94, 14.52, 0.00, 15.48, 14.27, 0.000, 0.000, 0.000, 09:49:45.966, 7
95, 14.34, 0.00, 12.25, 8.55, 0.000, 0.000, 0.000, 09:49:45.967, 7
96, 15.60, 0.00, 18.74, 19.81, 0.000, 0.000, 0.000, 09:49:45.967, 7
97, 20.64, 0.00, 18.66, 16.78, 0.000, 0.000, 0.000, 09:49:45.980, 7
98, 6.90, 0.00, 11.86, 12.46, 0.000, 0.000, 0.000, 09:49:45.981, 7
99, 11.62, 0.00, 16.33, 7.91, 0.000, 0.000, 0.000, 09:49:45.999, 7
100, 11.74, 0.00, 22.08, 17.71, 0.000, 0.000, 0.000, 09:49:46.000, 7
101, 15.85, 0.00, 21.83, 20.58, 0.000, 0.000, 0.000, 09:49:46.000, 7
102, 15.73, 0.00, 15.07, 12.80, 0.000, 0.000, 0.000, 09:49:46.001, 7
103, 17.61, 0.00, 16.62, 15.27, 0.000, 0.000, 0.000, 09:49:46.010, 7
104, 20.47, 0.00, 19.91, 17.59, 0.000, 0.000, 0.000, 09:49:46.010, 7
105, 14.76, 0.00, 13.94, 16.54, 0.000, 0.000, 0.000, 09:49:46.025, 7
106, 13.60, 0.00, 10.97, 12.54, 0.000, 0.000, 0.000, 09:49:46.025, 7
107, 15.08, 0.00, 14.15, 15.72, 0.000, 0.000, 0.000, 09:49:46.025, 7
108, 13.56, 0.00, 18.45, 23.25, 0.000, 0.000, 0.000, 09:49:46.026, 7
109, 19.90, 0.00, 19.40, 17.13, 0.000, 0.000, 0.000, 09:49:46.039, 7
110, 12.41, 0.00, 19.10, 14.52, 0.000, 0.000, 0.000, 09:49:46.040, 7
111, 11.42, 0.00, 11.70, 10.37, 0.000, 0.000, 0.000, 09:49:46.054, 7
112, 18.68, 0.00, 18.91, 17.42, 0.000, 0.000, 0.000, 09:49:46.055, 7
113, 18.39, 0.00, 20.28, 18.93, 0.000, 0.000, 0.000, 09:49:46.055, 7
114, 11.25, 0.00, 11.84, 15.36, 0.000, 0.000, 0.000, 09:49:46.056, 7
115, 12.80, 0.00, 12.70, 13.86, 0.000, 0.000, 0.000, 09:49:46.069, 7
116, 14.80, 0.00, 20.50, 19.50, 0.000, 0.000, 0.000, 09:49:46.069, 7
117, 16.59, 0.00, 19.72, 19.32, 0.000, 0.000, 0.000, 09:49:46.085, 7
118, 16.62, 0.00, 17.18, 13.87, 0.000, 0.000, 0.000, 09:49:46.085, 7
119, 13.92, 0.00, 14.10, 13.06, 0.000, 0.000, 0.000, 09:49:46.086, 7
120, 18.26, 0.00, 17.02, 16.45, 0.000, 0.000, 0.000, 09:49:46.087, 7
121, 17.06, 0.00, 22.89, 22.20, 0.000, 0.000, 0.000, 09:49:46.098, 7
122, 7.58, 0.00, 12.06, 11.11, 0.000, 0.000, 0.000, 09:49:46.099, 7
123, 11.89, 0.00, 9.41, 13.24, 0.000, 0.000, 0.000, 09:49:46.113, 7
124, 14.38, 0.00, 20.55, 20.35, 0.000, 0.000, 0.000, 09:49:46.114, 7
125, 18.30, 0.00, 21.44, 14.93, 0.000, 0.000, 0.000, 09:49:46.114, 7
126, 10.94, 0.00, 16.20, 13.64, 0.000, 0.000, 0.000, 09:49:46.114, 7
127, 10.73, 0.00, 14.10, 13.87, 0.000, 0.000, 0.000, 09:49:46.128, 7
128, 19.74, 0.00, 21.26, 18.95, 0.000, 0.000, 0.000, 09:49:46.129, 7
129, 15.68, 0.00, 16.05, 17.01, 0.000, 0.000, 0.000, 09:49:46.143, 7
130, 13.95, 0.00, 10.02, 16.81, 0.000, 0.000, 0.000, 09:49:46.144, 7
131, 12.13, 0.00, 17.93, 13.81, 0.000, 0.000, 0.000, 09:49:46.144, 7
132, 14.28, 0.00, 24.75, 17.60, 0.000, 0.000, 0.000, 09:49:46.144, 7
133, 14.08, 0.00, 23.75, 19.39, 0.000, 0.000, 0.000, 09:49:46.160, 7
134, 10.35, 0.00, 16.35, 12.49, 0.000, 0.000, 0.000, 09:49:46.160, 7
135, 8.18, 0.00, 13.87, 11.80, 0.000, 0.000, 0.000, 09:49:46.174, 7
136, 16.65, 0.00, 18.72, 17.18, 0.000, 0.000, 0.000, 09:49:46.174, 7
137, 18.80, 0.00, 18.86, 14.18, 0.000, 0.000, 0.000, 09:49:46.175, 7
138, 14.69, 0.00, 14.20, 13.82, 0.000, 0.000, 0.000, 09:49:46.175, 7
139, 15.09, 0.00, 15.17, 15.57, 0.000, 0.000, 0.000, 09:49:46.191, 7
140, 14.65, 0.00, 17.86, 21.05, 0.000, 0.000, 0.000, 09:49:46.193, 7
141, 15.13, 0.00, 24.98, 21.97, 0.000, 0.000, 0.000, 09:49:46.207, 7
142, 15.34, 0.00, 15.36, 15.14, 0.000, 0.000, 0.000, 09:49:46.208, 7
143, 14.77, 0.00, 15.66, 13.83, 0.000, 0.000, 0.000, 09:49:46.208, 7
144, 13.57, 0.00, 19.57, 19.48, 0.000, 0.000, 0.000, 09:49:46.209, 7
145, 19.17, 0.00, 22.67, 18.07, 0.000, 0.000, 0.000, 09:49:46.234, 7
146, 14.14, 0.00, 15.53, 15.62, 0.000, 0.000, 0.000, 09:49:46.234, 7
147, 12.75, 0.00, 12.53, 13.83, 0.000, 0.000, 0.000, 09:49:46.240, 7
148, 17.98, 0.00, 18.62, 18.31, 0.000, 0.000, 0.000, 09:49:46.240, 7
149, 16.72, 0.00, 21.79, 20.24, 0.000, 0.000, 0.000, 09:49:46.240, 7
150, 13.62, 0.00, 10.67, 16.26, 0.000, 0.000, 0.000, 09:49:46.241, 7
151, 9.91, 0.00, 13.92, 15.39, 0.000, 0.000, 0.000, 09:49:46.249, 7
152, 18.45, 0.00, 21.52, 19.15, 0.000, 0.000, 0.000, 09:49:46.249, 7
153, 18.10, 0.00, 23.55, 20.28, 0.000, 0.000, 0.000, 09:49:46.264, 7
154, 12.59, 0.00, 15.28, 12.94, 0.000, 0.000, 0.000, 09:49:46.264, 7
155, 14.46, 0.00, 11.17, 14.86, 0.000, 0.000, 0.000, 09:49:46.264, 7
156, 18.45, 0.00, 20.78, 19.10, 0.000, 0.000, 0.000, 09:49:46.264, 7
157, 16.11, 0.00, 22.36, 14.83, 0.000, 0.000, 0.000, 09:49:46.279, 7
158, 12.60, 0.00, 15.45, 8.36, 0.000, 0.000, 0.000, 09:49:46.279, 7
159, 13.52, 0.00, 12.48, 11.06, 0.000, 0.000, 0.000, 09:49:46.294, 7
160, 15.17, 0.00, 15.30, 17.62, 0.000, 0.000, 0.000, 09:49:46.294, 7
161, 19.15, 0.00, 15.76, 18.22, 0.000, 0.000, 0.000, 09:49:46.295, 7
162, 14.91, 0.00, 18.62, 14.12, 0.000, 0.000, 0.000, 09:49:46.295, 7
163, 14.13, 0.00, 16.64, 14.59, 0.000, 0.000, 0.000, 09:49:46.310, 7
164, 15.12, 0.00, 21.27, 17.19, 0.000, 0.000, 0.000, 09:49:46.310, 7
165, 17.82, 0.00, 18.86, 18.39, 0.000, 0.000, 0.000, 09:49:46.324, 7
166, 11.64, 0.00, 12.25, 10.95, 0.000, 0.000, 0.000, 09:49:46.324, 7
167, 13.57, 0.00, 18.29, 17.23, 0.000, 0.000, 0.000, 09:49:46.324, 7
168, 16.69, 0.00, 18.89, 19.60, 0.000, 0.000, 0.000, 09:49:46.325, 7
169, 14.57, 0.00, 14.51, 15.80, 0.000, 0.000, 0.000, 09:49:46.339, 7
170, 7.63, 0.00, 16.22, 10.79, 0.000, 0.000, 0.000, 09:49:46.339, 7
171, 14.34, 0.00, 14.83, 15.24, 0.000, 0.000, 0.000, 09:49:46.355, 7
172, 15.77, 0.00, 22.50, 17.87, 0.000, 0.000, 0.000, 09:49:46.356, 7
173, 15.20, 0.00, 18.68, 19.47, 0.000, 0.000, 0.000, 09:49:46.356, 7
174, 13.66, 0.00, 12.27, 13.16, 0.000, 0.000, 0.000, 09:49:46.356, 7
175, 12.90, 0.00, 12.18, 17.02, 0.000, 0.000, 0.000, 09:49:46.369, 7
176, 14.98, 0.00, 22.37, 17.63, 0.000, 0.000, 0.000, 09:49:46.369, 7
177, 17.31, 0.00, 20.32, 16.75, 0.000, 0.000, 0.000, 09:49:46.383, 7
178, 15.20, 0.00, 14.77, 12.03, 0.000, 0.000, 0.000, 09:49:46.384, 7
179, 13.67, 0.00, 14.87, 12.53, 0.000, 0.000, 0.000, 09:49:46.385, 7
180, 14.75, 0.00, 19.76, 19.82, 0.000, 0.000, 0.000, 09:49:46.385, 7
181, 13.52, 0.00, 17.50, 16.24, 0.000, 0.000, 0.000, 09:49:46.399, 7
182, 12.15, 0.00, 15.04, 13.33, 0.000, 0.000, 0.000, 09:49:46.399, 7
183, 10.19, 0.00, 16.00, 13.02, 0.000, 0.000, 0.000, 09:49:46.414, 7
184, 17.59, 0.00, 21.17, 21.02, 0.000, 0.000, 0.000, 09:49:46.414, 7
185, 14.80, 0.00, 21.42, 21.66, 0.000, 0.000, 0.000, 09:49:46.415, 7
186, 14.01, 0.00, 15.77, 12.78, 0.000, 0.000, 0.000, 09:49:46.415, 7
187, 15.85, 0.00, 14.68, 13.40, 0.000, 0.000, 0.000, 09:49:46.429, 7
188, 17.12, 0.00, 17.73, 21.40, 0.000, 0.000, 0.000, 09:49:46.429, 7
189, 13.64, 0.00, 19.26, 17.94, 0.000, 0.000, 0.000, 09:49:46.444, 7
190, 12.21, 0.00, 11.45, 13.50, 0.000, 0.000, 0.000, 09:49:46.445, 7
191, 13.74, 0.00, 16.65, 17.63, 0.000, 0.000, 0.000, 09:49:46.445, 7
192, 12.85, 0.00, 17.48, 16.09, 0.000, 0.000, 0.000, 09:49:46.445, 7
193, 20.35, 0.00, 19.76, 20.38, 0.000, 0.000, 0.000, 09:49:46.458, 7
194, 14.20, 0.00, 14.41, 9.06, 0.000, 0.000, 0.000, 09:49:46.459, 7
195, 15.81, 0.00, 17.01, 12.74, 0.000, 0.000, 0.000, 09:49:46.473, 7
196, 14.73, 0.00, 22.57, 20.88, 0.000, 0.000, 0.000, 09:49:46.473, 7
197, 16.24, 0.00, 19.86, 15.71, 0.000, 0.000, 0.000, 09:49:46.474, 7
198, 12.90, 0.00, 15.19, 11.69, 0.000, 0.000, 0.000, 09:49:46.474, 7
199, 13.15, 0.00, 12.51, 15.05, 0.000, 0.000, 0.000, 09:49:46.489, 7
200, 12.30, 0.00, 20.29, 18.59, 0.000, 0.000, 0.000, 09:49:46.489, 7
0, 17.78, 0.00, 19.85, 18.31, 0.000, 0.000, 0.000, 09:49:46.490, 7
1, 14.50, 0.00, 13.68, 12.45, 0.000, 0.000, 0.000, 09:49:46.504, 7
2, 13.98, 0.00, 14.92, 16.75, 0.000, 0.000, 0.000, 09:49:46.505, 7
3, 17.31, 0.00, 20.92, 21.90, 0.000, 0.000, 0.000, 09:49:46.520, 7
4, 19.47, 0.00, 19.99, 21.37, 0.000, 0.000, 0.000, 09:49:46.520, 7
5, 14.35, 0.00, 14.70, 10.15, 0.000, 0.000, 0.000, 09:49:46.520, 7
6, 12.73, 0.00, 11.29, 8.61, 0.000, 0.000, 0.000, 09:49:46.521, 7
7, 16.38, 0.00, 17.67, 17.11, 0.000, 0.000, 0.000, 09:49:46.535, 7
8, 17.35, 0.00, 20.63, 19.56, 0.000, 0.000, 0.000, 09:49:46.536, 7
9, 10.02, 0.00, 15.39, 12.79, 0.000, 0.000, 0.000, 09:49:46.549, 7
10, 15.52, 0.00, 14.95, 13.67, 0.000, 0.000, 0.000, 09:49:46.549, 7
11, 20.48, 0.00, 23.85, 18.68, 0.000, 0.000, 0.000, 09:49:46.564, 7
12, 15.14, 0.00, 15.78, 18.89, 0.000, 0.000, 0.000, 09:49:46.564, 7
13, 10.56, 0.00, 11.83, 14.61, 0.000, 0.000, 0.000, 09:49:46.565, 7
14, 12.66, 0.00, 15.52, 15.33, 0.000, 0.000, 0.000, 09:49:46.565, 7
15, 14.27, 0.00, 17.31, 17.38, 0.000, 0.000, 0.000, 09:49:46.579, 7
16, 14.82, 0.00, 21.47, 19.27, 0.000, 0.000, 0.000, 09:49:46.579, 7
17, 9.25, 0.00, 12.24, 11.60, 0.000, 0.000, 0.000, 09:49:46.579, 7
18, 15.19, 0.00, 16.29, 12.58, 0.000, 0.000, 0.000, 09:49:46.580, 7
19, 13.97, 0.00, 18.68, 19.28, 0.000, 0.000, 0.000, 09:49:46.594, 7
20, 18.66, 0.00, 21.90, 20.53, 0.000, 0.000, 0.000, 09:49:46.594, 7
21, 10.63, 0.00, 14.26, 13.48, 0.000, 0.000, 0.000, 09:49:46.609, 7
22, 12.64, 0.00, 16.16, 15.56, 0.000, 0.000, 0.000, 09:49:46.609, 7
23, 17.03, 0.00, 20.67, 22.59, 0.000, 0.000, 0.000, 09:49:46.609, 7
24, 17.09, 0.00, 22.66, 18.39, 0.000, 0.000, 0.000, 09:49:46.610, 7
25, 14.31, 0.00, 17.11, 12.58, 0.000, 0.000, 0.000, 09:49:46.624, 7
26, 12.99, 0.00, 12.20, 15.34, 0.000, 0.000, 0.000, 09:49:46.624, 7
27, 14.78, 0.00, 21.97, 19.02, 0.000, 0.000, 0.000, 09:49:46.639, 7
28, 17.47, 0.00, 16.53, 17.93, 0.000, 0.000, 0.000, 09:49:46.639, 7
29, 9.54, 0.00, 14.35, 10.47, 0.000, 0.000, 0.000, 09:49:46.639, 7
30, 13.96, 0.00, 14.59, 16.78, 0.000, 0.000, 0.000, 09:49:46.640, 7
31, 16.54, 0.00, 19.44, 19.05, 0.000, 0.000, 0.000, 09:49:46.655, 7
32, 19.64, 0.00, 22.76, 16.94, 0.000, 0.000, 0.000, 09:49:46.656, 7
33, 12.67, 0.00, 11.92, 16.06, 0.000, 0.000, 0.000, 09:49:46.670, 7
34, 9.48, 0.00, 14.03, 11.55, 0.000, 0.000, 0.000, 09:49:46.670, 7
35, 18.45, 0.00, 19.38, 19.29, 0.000, 0.000, 0.000, 09:49:46.670, 7
36, 13.39, 0.00, 22.03, 18.44, 0.000, 0.000, 0.000, 09:49:46.671, 7
37, 10.79, 0.00, 11.12, 11.08, 0.000, 0.000, 0.000, 09:49:46.684, 7
38, 13.44, 0.00, 15.03, 9.15, 0.000, 0.000, 0.000, 09:49:46.685, 7
39, 17.14, 0.00, 21.28, 20.21, 0.000, 0.000, 0.000, 09:49:46.699, 7
40, 17.61, 0.00, 15.31, 18.35, 0.000, 0.000, 0.000, 09:49:46.699, 7
41, 10.94, 0.00, 11.85, 13.58, 0.000, 0.000, 0.000, 09:49:46.699, 7
42, 13.28, 0.00, 15.02, 13.71, 0.000, 0.000, 0.000, 09:49:46.699, 7
43, 19.58, 0.00, 24.68, 18.68, 0.000, 0.000, 0.000, 09:49:46.714, 7
44, 14.92, 0.00, 23.56, 19.78, 0.000, 0.000, 0.000, 09:49:46.714, 7
45, 11.63, 0.00, 16.88, 15.03, 0.000, 0.000, 0.000, 09:49:46.728, 7
46, 11.81, 0.00, 14.95, 15.48, 0.000, 0.000, 0.000, 09:49:46.729, 7
47, 18.57, 0.00, 22.18, 18.40, 0.000, 0.000, 0.000, 09:49:46.729, 7
48, 15.57, 0.00, 18.71, 13.41, 0.000, 0.000, 0.000, 09:49:46.729, 7
49, 13.91, 0.00, 15.36, 13.47, 0.000, 0.000, 0.000, 09:49:46.743, 7
50, 13.97, 0.00, 14.91, 13.27, 0.000, 0.000, 0.000, 09:49:46.744, 7
51, 19.31, 0.00, 22.43, 20.73, 0.000, 0.000, 0.000, 09:49:46.758, 7
52, 14.45, 0.00, 24.42, 21.68, 0.000, 0.000, 0.000, 09:49:46.759, 7
53, 10.42, 0.00, 9.67, 13.30, 0.000, 0.000, 0.000, 09:49:46.759, 7
54, 11.46, 0.00, 13.89, 13.94, 0.000, 0.000, 0.000, 09:49:46.759, 7
55, 14.82, 0.00, 20.11, 18.78, 0.000, 0.000, 0.000, 09:49:46.773, 7
56, 13.27, 0.00, 18.66, 17.97, 0.000, 0.000, 0.000, 09:49:46.774, 7
57, 8.64, 0.00, 15.12, 12.81, 0.000, 0.000, 0.000, 09:49:46.789, 7
58, 13.80, 0.00, 10.60, 13.48, 0.000, 0.000, 0.000, 09:49:46.789, 7
59, 16.92, 0.00, 18.07, 22.79, 0.000, 0.000, 0.000, 09:49:46.789, 7
60, 15.69, 0.00, 20.99, 13.66, 0.000, 0.000, 0.000, 09:49:46.789, 7
61, 15.70, 0.00, 11.24, 10.12, 0.000, 0.000, 0.000, 09:49:46.805, 7
62, 9.88, 0.00, 13.91, 10.82, 0.000, 0.000, 0.000, 09:49:46.805, 7
63, 15.64, 0.00, 17.07, 18.97, 0.000, 0.000, 0.000, 09:49:46.821, 7
64, 14.63, 0.00, 20.27, 20.55, 0.000, 0.000, 0.000, 09:49:46.822, 7
65, 15.52, 0.00, 16.52, 14.72, 0.000, 0.000, 0.000, 09:49:46.822, 7
66, 14.04, 0.00, 14.97, 13.32, 0.000, 0.000, 0.000, 09:49:46.823, 7
67, 18.51, 0.00, 20.06, 20.08, 0.000, 0.000, 0.000, 09:49:46.835, 7
68, 20.14, 0.00, 21.57, 17.33, 0.000, 0.000, 0.000, 09:49:46.836, 7
69, 8.48, 0.00, 15.11, 14.49, 0.000, 0.000, 0.000, 09:49:46.848, 7
70, 12.84, 0.00, 12.14, 13.64, 0.000, 0.000, 0.000, 09:49:46.848, 7
71, 19.50, 0.00, 20.05, 17.32, 0.000, 0.000, 0.000, 09:49:46.856, 7
72, 13.31, 0.00, 19.53, 19.82, 0.000, 0.000, 0.000, 09:49:46.856, 7
73, 14.09, 0.00, 15.03, 18.42, 0.000, 0.000, 0.000, 09:49:46.863, 7
74, 16.95, 0.00, 15.48, 15.95, 0.000, 0.000, 0.000, 09:49:46.863, 7
75, 13.68, 0.00, 20.85, 19.95, 0.000, 0.000, 0.000, 09:49:46.893, 7
76, 19.06, 0.00, 20.12, 20.00, 0.000, 0.000, 0.000, 09:49:46.893, 7
77, 14.43, 0.00, 14.60, 12.65, 0.000, 0.000, 0.000, 09:49:46.894, 7
78, 11.32, 0.00, 14.54, 12.27, 0.000, 0.000, 0.000, 09:49:46.894, 7
79, 17.45, 0.00, 22.98, 16.91, 0.000, 0.000, 0.000, 09:49:46.894, 7
80, 15.37, 0.00, 20.77, 17.01, 0.000, 0.000, 0.000, 09:49:46.894, 7
81, 7.34, 0.00, 13.32, 14.68, 0.000, 0.000, 0.000, 09:49:46.895, 7
82, 15.11, 0.00, 14.89, 12.47, 0.000, 0.000, 0.000, 09:49:46.895, 7
83, 17.08, 0.00, 21.52, 19.82, 0.000, 0.000, 0.000, 09:49:46.909, 7
84, 17.47, 0.00, 19.31, 18.81, 0.000, 0.000, 0.000, 09:49:46.909, 7
85, 14.84, 0.00, 12.17, 17.53, 0.000, 0.000, 0.000, 09:49:46.924, 7
86, 14.35, 0.00, 14.91, 15.36, 0.000, 0.000, 0.000, 09:49:46.924, 7
87, 18.23, 0.00, 20.00, 17.83, 0.000, 0.000, 0.000, 09:49:46.939, 7
88, 15.70, 0.00, 18.23, 18.64, 0.000, 0.000, 0.000, 09:49:46.939, 7
89, 11.56, 0.00, 13.10, 14.26, 0.000, 0.000, 0.000, 09:49:46.939, 7
90, 14.73, 0.00, 12.93, 11.90, 0.000, 0.000, 0.000, 09:49:46.940, 7
91, 15.21, 0.00, 18.67, 21.49, 0.000, 0.000, 0.000, 09:49:46.969, 7
92, 16.31, 0.00, 18.41, 16.61, 0.000, 0.000, 0.000, 09:49:46.970, 7
93, 10.01, 0.00, 15.60, 11.35, 0.000, 0.000, 0.000, 09:49:46.970, 7
94, 15.51, 0.00, 11.99, 11.79, 0.000, 0.000, 0.000, 09:49:46.970, 7
95, 13.91, 0.00, 14.97, 18.72, 0.000, 0.000, 0.000, 09:49:46.970, 7
96, 13.24, 0.00, 15.78, 15.81, 0.000, 0.000, 0.000, 09:49:46.971, 7
97, 15.04, 0.00, 13.83, 16.37, 0.000, 0.000, 0.000, 09:49:46.984, 7
98, 16.46, 0.00, 16.13, 14.08, 0.000, 0.000, 0.000, 09:49:46.984, 7
99, 15.86, 0.00, 18.56, 18.69, 0.000, 0.000, 0.000, 09:49:47.000, 7
100, 18.98, 0.00, 20.84, 14.79, 0.000, 0.000, 0.000, 09:49:47.000, 7
101, 13.59, 0.00, 16.68, 10.35, 0.000, 0.000, 0.000, 09:49:47.000, 7
102, 13.17, 0.00, 16.50, 15.65, 0.000, 0.000, 0.000, 09:49:47.000, 7
103, 12.77, 0.00, 20.45, 16.12, 0.000, 0.000, 0.000, 09:49:47.014, 7
104, 16.47, 0.00, 22.07, 17.52, 0.000, 0.000, 0.000, 09:49:47.014, 7
105, 11.01, 0.00, 15.31, 15.80, 0.000, 0.000, 0.000, 09:49:47.029, 7
106, 11.91, 0.00, 14.99, 13.71, 0.000, 0.000, 0.000, 09:49:47.030, 7
107, 16.49, 0.00, 22.68, 18.59, 0.000, 0.000, 0.000, 09:49:47.044, 7
108, 16.69, 0.00, 18.83, 18.34, 0.000, 0.000, 0.000, 09:49:47.044, 7
109, 9.77, 0.00, 17.04, 12.41, 0.000, 0.000, 0.000, 09:49:47.045, 7
110, 13.93, 0.00, 14.55, 11.88, 0.000, 0.000, 0.000, 09:49:47.045, 7
111, 14.94, 0.00, 17.44, 20.96, 0.000, 0.000, 0.000, 09:49:47.059, 7
112, 14.26, 0.00, 21.18, 17.27, 0.000, 0.000, 0.000, 09:49:47.059, 7
113, 13.94, 0.00, 15.63, 13.20, 0.000, 0.000, 0.000, 09:49:47.060, 7
114, 14.30, 0.00, 15.23, 16.43, 0.000, 0.000, 0.000, 09:49:47.060, 7
115, 17.72, 0.00, 20.59, 16.37, 0.000, 0.000, 0.000, 09:49:47.074, 7
116, 18.39, 0.00, 18.94, 18.76, 0.000, 0.000, 0.000, 09:49:47.075, 7
117, 15.92, 0.00, 13.67, 14.24, 0.000, 0.000, 0.000, 09:49:47.089, 7
118, 13.28, 0.00, 19.81, 15.62, 0.000, 0.000, 0.000, 09:49:47.089, 7
119, 16.74, 0.00, 19.66, 20.09, 0.000, 0.000, 0.000, 09:49:47.089, 7
120, 15.70, 0.00, 18.19, 16.58, 0.000, 0.000, 0.000, 09:49:47.090, 7
121, 11.33, 0.00, 12.55, 10.57, 0.000, 0.000, 0.000, 09:49:47.105, 7
122, 9.23, 0.00, 15.01, 11.95, 0.000, 0.000, 0.000, 09:49:47.105, 7
123, 15.26, 0.00, 19.20, 20.83, 0.000, 0.000, 0.000, 09:49:47.119, 7
124, 17.12, 0.00, 17.69, 19.14, 0.000, 0.000, 0.000, 09:49:47.120, 7
125, 16.02, 0.00, 15.54, 12.97, 0.000, 0.000, 0.000, 09:49:47.120, 7
126, 12.84, 0.00, 13.11, 10.82, 0.000, 0.000, 0.000, 09:49:47.120, 7
127, 15.60, 0.00, 18.65, 18.51, 0.000, 0.000, 0.000, 09:49:47.134, 7
128, 20.66, 0.00, 20.35, 18.55, 0.000, 0.000, 0.000, 09:49:47.135, 7
129, 11.44, 0.00, 14.77, 12.64, 0.000, 0.000, 0.000, 09:49:47.148, 7
130, 10.40, 0.00, 15.59, 12.91, 0.000, 0.000, 0.000, 09:49:47.148, 7
131, 13.66, 0.00, 22.45, 15.31, 0.000, 0.000, 0.000, 09:49:47.149, 7
132, 13.50, 0.00, 19.40, 16.76, 0.000, 0.000, 0.000, 09:49:47.149, 7
133, 14.68, 0.00, 13.93, 13.42, 0.000, 0.000, 0.000, 09:49:47.163, 7
134, 12.15, 0.00, 14.09, 16.13, 0.000, 0.000, 0.000, 09:49:47.164, 7
135, 14.06, 0.00, 18.83, 14.74, 0.000, 0.000, 0.000, 09:49:47.178, 7
136, 14.56, 0.00, 20.07, 17.71, 0.000, 0.000, 0.000, 09:49:47.178, 7
137, 12.98, 0.00, 13.98, 12.58, 0.000, 0.000, 0.000, 09:49:47.179, 7
138, 14.63, 0.00, 16.24, 18.15, 0.000, 0.000, 0.000, 09:49:47.179, 7
139, 19.06, 0.00, 20.58, 21.79, 0.000, 0.000, 0.000, 09:49:47.193, 7
140, 18.35, 0.00, 19.16, 18.86, 0.000, 0.000, 0.000, 09:49:47.193, 7
141, 10.34, 0.00, 9.68, 10.59, 0.000, 0.000, 0.000, 09:49:47.208, 7
142, 12.41, 0.00, 17.13, 12.78, 0.000, 0.000, 0.000, 09:49:47.208, 7
143, 15.46, 0.00, 20.57, 17.62, 0.000, 0.000, 0.000, 09:49:47.209, 7
144, 17.39, 0.00, 17.70, 17.88, 0.000, 0.000, 0.000, 09:49:47.209, 7
145, 13.11, 0.00, 12.77, 13.34, 0.000, 0.000, 0.000, 09:49:47.224, 7
146, 14.04, 0.00, 15.33, 17.62, 0.000, 0.000, 0.000, 09:49:47.224, 7
147, 21.36, 0.00, 18.77, 21.10, 0.000, 0.000, 0.000, 09:49:47.239, 7
148, 16.82, 0.00, 20.05, 21.91, 0.000, 0.000, 0.000, 09:49:47.239, 7
149, 13.57, 0.00, 13.79, 15.51, 0.000, 0.000, 0.000, 09:49:47.240, 7
150, 11.17, 0.00, 14.45, 11.16, 0.000, 0.000, 0.000, 09:49:47.240, 7
151, 13.20, 0.00, 19.90, 19.18, 0.000, 0.000, 0.000, 09:49:47.254, 7
152, 23.06, 0.00, 24.32, 20.09, 0.000, 0.000, 0.000, 09:49:47.255, 7
153, 15.71, 0.00, 12.14, 16.24, 0.000, 0.000, 0.000, 09:49:47.270, 7
154, 9.21, 0.00, 17.29, 13.75, 0.000, 0.000, 0.000, 09:49:47.270, 7
155, 14.80, 0.00, 23.46, 18.72, 0.000, 0.000, 0.000, 09:49:47.284, 7
156, 15.07, 0.00, 18.00, 16.44, 0.000, 0.000, 0.000, 09:49:47.285, 7
157, 10.71, 0.00, 16.05, 14.27, 0.000, 0.000, 0.000, 09:49:47.287, 7
158, 14.80, 0.00, 15.97, 16.93, 0.000, 0.000, 0.000, 09:49:47.287, 7
159, 20.02, 0.00, 18.64, 22.17, 0.000, 0.000, 0.000, 09:49:47.299, 7
160, 18.82, 0.00, 20.47, 19.47, 0.000, 0.000, 0.000, 09:49:47.299, 7
161, 9.04, 0.00, 12.41, 11.09, 0.000, 0.000, 0.000, 09:49:47.307, 7
162, 9.61, 0.00, 15.89, 14.38, 0.000, 0.000, 0.000, 09:49:47.307, 7
163, 17.79, 0.00, 23.48, 17.51, 0.000, 0.000, 0.000, 09:49:47.314, 7
164, 19.04, 0.00, 21.27, 17.21, 0.000, 0.000, 0.000, 09:49:47.314, 7
165, 10.45, 0.00, 14.70, 15.78, 0.000, 0.000, 0.000, 09:49:47.329, 7
166, 9.75, 0.00, 13.26, 14.50, 0.000, 0.000, 0.000, 09:49:47.329, 7
167, 21.82, 0.00, 22.28, 22.07, 0.000, 0.000, 0.000, 09:49:47.330, 7
168, 13.46, 0.00, 19.27, 17.26, 0.000, 0.000, 0.000, 09:49:47.330, 7
169, 11.29, 0.00, 12.10, 10.66, 0.000, 0.000, 0.000, 09:49:47.344, 7
170, 14.63, 0.00, 15.18, 10.71, 0.000, 0.000, 0.000, 09:49:47.344, 7
171, 19.61, 0.00, 20.12, 20.99, 0.000, 0.000, 0.000, 09:49:47.359, 7
172, 13.64, 0.00, 19.29, 14.98, 0.000, 0.000, 0.000, 09:49:47.359, 7
173, 15.26, 0.00, 15.60, 14.27, 0.000, 0.000, 0.000, 09:49:47.359, 7
174, 15.29, 0.00, 13.77, 10.57, 0.000, 0.000, 0.000, 09:49:47.360, 7
175, 16.83, 0.00, 16.31, 20.79, 0.000, 0.000, 0.000, 09:49:47.374, 7
176, 14.36, 0.00, 22.45, 19.42, 0.000, 0.000, 0.000, 09:49:47.374, 7
177, 13.70, 0.00, 16.43, 14.58, 0.000, 0.000, 0.000, 09:49:47.389, 7
178, 10.20, 0.00, 12.43, 11.08, 0.000, 0.000, 0.000, 09:49:47.389, 7
179, 15.04, 0.00, 19.33, 20.84, 0.000, 0.000, 0.000, 09:49:47.389, 7
180, 14.58, 0.00, 17.56, 16.51, 0.000, 0.000, 0.000, 09:49:47.390, 7
181, 12.64, 0.00, 14.88, 13.49, 0.000, 0.000, 0.000, 09:49:47.404, 7
182, 13.53, 0.00, 14.21, 12.80, 0.000, 0.000, 0.000, 09:49:47.405, 7
183, 14.27, 0.00, 21.56, 20.23, 0.000, 0.000, 0.000, 09:49:47.420, 7
184, 18.18, 0.00, 19.31, 20.67, 0.000, 0.000, 0.000, 09:49:47.420, 7
185, 9.57, 0.00, 14.50, 12.78, 0.000, 0.000, 0.000, 09:49:47.420, 7
186, 12.94, 0.00, 12.96, 15.99, 0.000, 0.000, 0.000, 09:49:47.421, 7
187, 16.71, 0.00, 21.19, 21.80, 0.000, 0.000, 0.000, 09:49:47.434, 7
188, 19.99, 0.00, 20.11, 17.72, 0.000, 0.000, 0.000, 09:49:47.435, 7
189, 18.77, 0.00, 16.14, 19.90, 0.000, 0.000, 0.000, 09:49:47.449, 7
190, 14.24, 0.00, 13.18, 14.19, 0.000, 0.000, 0.000, 09:49:47.449, 7
191, 17.46, 0.00, 21.48, 20.07, 0.000, 0.000, 0.000, 09:49:47.449, 7
192, 18.23, 0.00, 20.21, 18.10, 0.000, 0.000, 0.000, 09:49:47.449, 7
193, 14.92, 0.00, 16.27, 13.44, 0.000, 0.000, 0.000, 09:49:47.464, 7
194, 10.23, 0.00, 12.58, 12.80, 0.000, 0.000, 0.000, 09:49:47.464, 7
195, 11.92, 0.00, 20.60, 16.75, 0.000, 0.000, 0.000, 09:49:47.478, 7
196, 11.97, 0.00, 17.83, 18.16, 0.000, 0.000, 0.000, 09:49:47.479, 7
197, 16.29, 0.00, 13.35, 14.91, 0.000, 0.000, 0.000, 09:49:47.479, 7
198, 15.36, 0.00, 13.47, 14.91, 0.000, 0.000, 0.000, 09:49:47.479, 7
199, 17.00, 0.00, 20.67, 17.24, 0.000, 0.000, 0.000, 09:49:47.493, 7
200, 17.67, 0.00, 21.54, 21.08, 0.000, 0.000, 0.000, 09:49:47.494, 7
0, 15.34, 0.00, 8.29, 13.09, 0.000, 0.000, 0.000, 09:49:47.494, 7
1, 14.45, 0.00, 14.39, 11.73, 0.000, 0.000, 0.000, 09:49:47.508, 7
2, 19.20, 0.00, 24.18, 16.38, 0.000, 0.000, 0.000, 09:49:47.509, 7
3, 16.29, 0.00, 18.35, 18.61, 0.000, 0.000, 0.000, 09:49:47.523, 7
4, 11.49, 0.00, 16.20, 15.56, 0.000, 0.000, 0.000, 09:49:47.524, 7
5, 12.57, 0.00, 12.77, 14.69, 0.000, 0.000, 0.000, 09:49:47.524, 7
6, 15.71, 0.00, 18.86, 13.77, 0.000, 0.000, 0.000, 09:49:47.524, 7
7, 18.21, 0.00, 21.42, 18.39, 0.000, 0.000, 0.000, 09:49:47.539, 7
8, 12.99, 0.00, 11.66, 12.81, 0.000, 0.000, 0.000, 09:49:47.539, 7
9, 10.00, 0.00, 18.41, 10.76, 0.000, 0.000, 0.000, 09:49:47.554, 7
10, 17.64, 0.00, 24.21, 18.09, 0.000, 0.000, 0.000, 09:49:47.555, 7
11, 18.41, 0.00, 20.03, 20.02, 0.000, 0.000, 0.000, 09:49:47.555, 7
12, 8.34, 0.00, 11.65, 11.70, 0.000, 0.000, 0.000, 09:49:47.555, 7
13, 13.39, 0.00, 12.45, 13.27, 0.000, 0.000, 0.000, 09:49:47.569, 7
14, 14.19, 0.00, 17.72, 19.25, 0.000, 0.000, 0.000, 09:49:47.569, 7
15, 18.15, 0.00, 22.60, 18.63, 0.000, 0.000, 0.000, 09:49:47.599, 7
16, 9.98, 0.00, 14.25, 15.59, 0.000, 0.000, 0.000, 09:49:47.599, 7
17, 11.08, 0.00, 13.07, 13.31, 0.000, 0.000, 0.000, 09:49:47.599, 7
18, 17.14, 0.00, 18.56, 18.74, 0.000, 0.000, 0.000, 09:49:47.599, 7
19, 16.31, 0.00, 22.36, 19.17, 0.000, 0.000, 0.000, 09:49:47.600, 7
20, 13.48, 0.00, 15.56, 13.47, 0.000, 0.000, 0.000, 09:49:47.600, 7
21, 11.46, 0.00, 16.20, 14.15, 0.000, 0.000, 0.000, 09:49:47.601, 7
22, 19.34, 0.00, 21.99, 19.98, 0.000, 0.000, 0.000, 09:49:47.601, 7
23, 17.23, 0.00, 20.95, 18.56, 0.000, 0.000, 0.000, 09:49:47.614, 7
24, 9.29, 0.00, 10.87, 10.76, 0.000, 0.000, 0.000, 09:49:47.614, 7
25, 12.27, 0.00, 13.48, 12.80, 0.000, 0.000, 0.000, 09:49:47.629, 7
26, 14.38, 0.00, 20.95, 16.15, 0.000, 0.000, 0.000, 09:49:47.629, 7
27, 15.32, 0.00, 17.02, 15.24, 0.000, 0.000, 0.000, 09:49:47.644, 7
28, 11.78, 0.00, 13.42, 11.82, 0.000, 0.000, 0.000, 09:49:47.644, 7
29, 11.42, 0.00, 13.68, 12.76, 0.000, 0.000, 0.000, 09:49:47.644, 7
30, 16.59, 0.00, 18.64, 17.50, 0.000, 0.000, 0.000, 09:49:47.644, 7
31, 14.51, 0.00, 20.78, 18.94, 0.000, 0.000, 0.000, 09:49:47.659, 7
32, 16.66, 0.00, 13.94, 13.41, 0.000, 0.000, 0.000, 09:49:47.659, 7
33, 12.38, 0.00, 13.77, 13.54, 0.000, 0.000, 0.000, 09:49:47.675, 7
34, 17.68, 0.00, 19.83, 19.70, 0.000, 0.000, 0.000, 09:49:47.675, 7
35, 18.69, 0.00, 20.20, 23.79, 0.000, 0.000, 0.000, 09:49:47.675, 7
36, 12.53, 0.00, 14.31, 14.58, 0.000, 0.000, 0.000, 09:49:47.675, 7
37, 11.54, 0.00, 13.65, 14.73, 0.000, 0.000, 0.000, 09:49:47.709, 7
38, 19.70, 0.00, 18.82, 17.98, 0.000, 0.000, 0.000, 09:49:47.709, 7
39, 17.88, 0.00, 19.25, 15.38, 0.000, 0.000, 0.000, 09:49:47.709, 7
40, 12.90, 0.00, 15.91, 9.53, 0.000, 0.000, 0.000, 09:49:47.710, 7
41, 14.40, 0.00, 17.37, 10.98, 0.000, 0.000, 0.000, 09:49:47.710, 7
42, 17.93, 0.00, 21.63, 22.77, 0.000, 0.000, 0.000, 09:49:47.710, 7
43, 11.90, 0.00, 18.95, 18.44, 0.000, 0.000, 0.000, 09:49:47.719, 7
44, 10.00, 0.00, 11.07, 13.61, 0.000, 0.000, 0.000, 09:49:47.720, 7
45, 12.52, 0.00, 12.59, 13.49, 0.000, 0.000, 0.000, 09:49:47.739, 7
46, 16.47, 0.00, 21.22, 20.30, 0.000, 0.000, 0.000, 09:49:47.739, 7
47, 16.42, 0.00, 23.53, 20.97, 0.000, 0.000, 0.000, 09:49:47.739, 7
48, 16.51, 0.00, 15.42, 18.45, 0.000, 0.000, 0.000, 09:49:47.739, 7
49, 14.54, 0.00, 17.45, 13.32, 0.000, 0.000, 0.000, 09:49:47.750, 7
50, 16.42, 0.00, 23.91, 17.16, 0.000, 0.000, 0.000, 09:49:47.750, 7
51, 17.44, 0.00, 21.48, 18.47, 0.000, 0.000, 0.000, 09:49:47.765, 7
52, 11.07, 0.00, 17.07, 12.98, 0.000, 0.000, 0.000, 09:49:47.765, 7
53, 12.86, 0.00, 14.35, 11.65, 0.000, 0.000, 0.000, 09:49:47.766, 7
54, 20.86, 0.00, 19.76, 19.41, 0.000, 0.000, 0.000, 09:49:47.766, 7
55, 16.73, 0.00, 19.71, 18.98, 0.000, 0.000, 0.000, 09:49:47.780, 7
56, 9.44, 0.00, 11.88, 16.54, 0.000, 0.000, 0.000, 09:49:47.780, 7
57, 14.50, 0.00, 17.50, 15.21, 0.000, 0.000, 0.000, 09:49:47.795, 7
58, 14.68, 0.00, 23.58, 19.85, 0.000, 0.000, 0.000, 09:49:47.795, 7
59, 16.21, 0.00, 21.83, 16.91, 0.000, 0.000, 0.000, 09:49:47.796, 7
60, 10.39, 0.00, 14.45, 17.52, 0.000, 0.000, 0.000, 09:49:47.796, 7
61, 11.73, 0.00, 12.32, 11.54, 0.000, 0.000, 0.000, 09:49:47.810, 7
62, 19.70, 0.00, 16.04, 19.67, 0.000, 0.000, 0.000, 09:49:47.810, 7
63, 16.34, 0.00, 18.64, 18.86, 0.000, 0.000, 0.000, 09:49:47.825, 7
64, 11.49, 0.00, 12.08, 13.92, 0.000, 0.000, 0.000, 09:49:47.825, 7
65, 9.91, 0.00, 11.56, 11.44, 0.000, 0.000, 0.000, 09:49:47.826, 7
66, 14.28, 0.00, 15.85, 14.46, 0.000, 0.000, 0.000, 09:49:47.826, 7
67, 19.34, 0.00, 19.40, 19.73, 0.000, 0.000, 0.000, 09:49:47.840, 7
68, 12.06, 0.00, 13.67, 12.24, 0.000, 0.000, 0.000, 09:49:47.840, 7
69, 10.56, 0.00, 15.29, 15.92, 0.000, 0.000, 0.000, 09:49:47.855, 7
70, 11.99, 0.00, 19.86, 16.24, 0.000, 0.000, 0.000, 09:49:47.855, 7
71, 15.76, 0.00, 17.28, 19.44, 0.000, 0.000, 0.000, 09:49:47.856, 7
72, 14.13, 0.00, 14.73, 12.59, 0.000, 0.000, 0.000, 09:49:47.856, 7
73, 12.79, 0.00, 18.10, 12.07, 0.000, 0.000, 0.000, 09:49:47.878, 7
74, 17.90, 0.00, 20.47, 20.96, 0.000, 0.000, 0.000, 09:49:47.878, 7
75, 15.42, 0.00, 18.68, 20.35, 0.000, 0.000, 0.000, 09:49:47.884, 7
76, 10.52, 0.00, 12.25, 15.57, 0.000, 0.000, 0.000, 09:49:47.885, 7
77, 13.42, 0.00, 16.76, 13.26, 0.000, 0.000, 0.000, 09:49:47.886, 7
78, 17.31, 0.00, 17.27, 17.06, 0.000, 0.000, 0.000, 09:49:47.887, 7
79, 17.26, 0.00, 15.43, 15.16, 0.000, 0.000, 0.000, 09:49:47.905, 7
80, 10.47, 0.00, 11.58, 12.35, 0.000, 0.000, 0.000, 09:49:47.905, 7
81, 10.94, 0.00, 12.59, 15.57, 0.000, 0.000, 0.000, 09:49:47.914, 7
82, 17.22, 0.00, 21.85, 17.76, 0.000, 0.000, 0.000, 09:49:47.915, 7
83, 17.19, 0.00, 22.04, 18.76, 0.000, 0.000, 0.000, 09:49:47.915, 7
84, 11.67, 0.00, 12.73, 13.23, 0.000, 0.000, 0.000, 09:49:47.916, 7
85, 14.91, 0.00, 19.37, 11.56, 0.000, 0.000, 0.000, 09:49:47.929, 7
86, 19.54, 0.00, 21.09, 18.73, 0.000, 0.000, 0.000, 09:49:47.930, 7
87, 17.39, 0.00, 22.64, 17.95, 0.000, 0.000, 0.000, 09:49:47.944, 7
88, 14.41, 0.00, 16.06, 11.71, 0.000, 0.000, 0.000, 09:49:47.945, 7
89, 12.34, 0.00, 15.55, 13.91, 0.000, 0.000, 0.000, 09:49:47.945, 7
90, 19.62, 0.00, 20.11, 20.79, 0.000, 0.000, 0.000, 09:49:47.946, 7
91, 18.39, 0.00, 25.01, 16.35, 0.000, 0.000, 0.000, 09:49:47.959, 7
92, 12.84, 0.00, 16.58, 13.50, 0.000, 0.000, 0.000, 09:49:47.960, 7
93, 9.44, 0.00, 14.16, 15.31, 0.000, 0.000, 0.000, 09:49:47.975, 7
94, 19.50, 0.00, 16.95, 14.49, 0.000, 0.000, 0.000, 09:49:47.976, 7
95, 15.39, 0.00, 16.26, 16.23, 0.000, 0.000, 0.000, 09:49:47.976, 7
96, 11.82, 0.00, 11.98, 15.39, 0.000, 0.000, 0.000, 09:49:47.976, 7
97, 13.36, 0.00, 12.67, 15.77, 0.000, 0.000, 0.000, 09:49:47.989, 7
98, 17.92, 0.00, 19.58, 19.96, 0.000, 0.000, 0.000, 09:49:47.990, 7
99, 15.74, 0.00, 18.49, 21.12, 0.000, 0.000, 0.000, 09:49:48.004, 7
100, 13.72, 0.00, 18.63, 17.10, 0.000, 0.000, 0.000, 09:49:48.005, 7
101, 15.01, 0.00, 12.06, 12.43, 0.000, 0.000, 0.000, 09:49:48.011, 7
102, 15.83, 0.00, 17.23, 18.03, 0.000, 0.000, 0.000, 09:49:48.012, 7
103, 18.88, 0.00, 22.15, 18.75, 0.000, 0.000, 0.000, 09:49:48.020, 7
104, 13.83, 0.00, 19.76, 15.10, 0.000, 0.000, 0.000, 09:49:48.020, 7
105, 15.83, 0.00, 14.27, 13.65, 0.000, 0.000, 0.000, 09:49:48.034, 7
106, 15.76, 0.00, 16.50, 16.96, 0.000, 0.000, 0.000, 09:49:48.034, 7
107, 16.96, 0.00, 18.92, 19.26, 0.000, 0.000, 0.000, 09:49:48.035, 7
108, 15.33, 0.00, 16.09, 14.42, 0.000, 0.000, 0.000, 09:49:48.036, 7
109, 10.37, 0.00, 17.22, 10.86, 0.000, 0.000, 0.000, 09:49:48.050, 7
110, 15.00, 0.00, 18.83, 20.31, 0.000, 0.000, 0.000, 09:49:48.051, 7
111, 19.83, 0.00, 19.10, 18.09, 0.000, 0.000, 0.000, 09:49:48.065, 7
112, 12.93, 0.00, 16.86, 13.86, 0.000, 0.000, 0.000, 09:49:48.065, 7
113, 8.40, 0.00, 13.97, 9.44, 0.000, 0.000, 0.000, 09:49:48.066, 7
114, 13.94, 0.00, 19.53, 19.48, 0.000, 0.000, 0.000, 09:49:48.066, 7
115, 16.83, 0.00, 20.64, 15.74, 0.000, 0.000, 0.000, 09:49:48.080, 7
116, 12.74, 0.00, 11.40, 12.24, 0.000, 0.000, 0.000, 09:49:48.080, 7
117, 14.18, 0.00, 15.25, 14.69, 0.000, 0.000, 0.000, 09:49:48.095, 7
118, 15.46, 0.00, 24.47, 23.40, 0.000, 0.000, 0.000, 09:49:48.095, 7
119, 16.57, 0.00, 18.66, 15.25, 0.000, 0.000, 0.000, 09:49:48.096, 7
120, 10.58, 0.00, 16.31, 15.58, 0.000, 0.000, 0.000, 09:49:48.096, 7
121, 13.37, 0.00, 14.54, 14.80, 0.000, 0.000, 0.000, 09:49:48.111, 7
122, 13.73, 0.00, 20.39, 18.41, 0.000, 0.000, 0.000, 09:49:48.111, 7
123, 16.40, 0.00, 20.47, 20.33, 0.000, 0.000, 0.000, 09:49:48.126, 7
124, 11.49, 0.00, 15.14, 17.54, 0.000, 0.000, 0.000, 09:49:48.126, 7
125, 13.59, 0.00, 11.06, 14.74, 0.000, 0.000, 0.000, 09:49:48.127, 7
126, 19.62, 0.00, 19.07, 20.09, 0.000, 0.000, 0.000, 09:49:48.128, 7
127, 17.45, 0.00, 18.22, 20.43, 0.000, 0.000, 0.000, 09:49:48.139, 7
128, 11.30, 0.00, 8.06, 8.17, 0.000, 0.000, 0.000, 09:49:48.140, 7
129, 13.32, 0.00, 12.24, 14.72, 0.000, 0.000, 0.000, 09:49:48.154, 7
130, 15.76, 0.00, 24.27, 17.84, 0.000, 0.000, 0.000, 09:49:48.154, 7
131, 17.45, 0.00, 16.53, 18.53, 0.000, 0.000, 0.000, 09:49:48.155, 7
132, 11.20, 0.00, 15.28, 12.22, 0.000, 0.000, 0.000, 09:49:48.155, 7
133, 13.74, 0.00, 18.55, 17.00, 0.000, 0.000, 0.000, 09:49:48.171, 7
134, 16.22, 0.00, 19.74, 19.74, 0.000, 0.000, 0.000, 09:49:48.171, 7
135, 16.25, 0.00, 22.23, 18.24, 0.000, 0.000, 0.000, 09:49:48.185, 7
136, 13.21, 0.00, 14.70, 13.82, 0.000, 0.000, 0.000, 09:49:48.185, 7
137, 13.82, 0.00, 14.80, 14.24, 0.000, 0.000, 0.000, 09:49:48.187, 7
138, 14.40, 0.00, 20.31, 19.75, 0.000, 0.000, 0.000, 09:49:48.187, 7
139, 15.59, 0.00, 23.28, 16.85, 0.000, 0.000, 0.000, 09:49:48.199, 7
140, 11.71, 0.00, 13.05, 13.77, 0.000, 0.000, 0.000, 09:49:48.200, 7
141, 13.40, 0.00, 12.58, 15.44, 0.000, 0.000, 0.000, 09:49:48.214, 7
142, 17.49, 0.00, 18.17, 18.69, 0.000, 0.000, 0.000, 09:49:48.215, 7
143, 16.33, 0.00, 20.31, 16.97, 0.000, 0.000, 0.000, 09:49:48.215, 7
144, 9.95, 0.00, 13.34, 10.01, 0.000, 0.000, 0.000, 09:49:48.216, 7
145, 10.77, 0.00, 15.64, 12.07, 0.000, 0.000, 0.000, 09:49:48.230, 7
146, 15.54, 0.00, 18.26, 20.02, 0.000, 0.000, 0.000, 09:49:48.230, 7
147, 15.83, 0.00, 20.23, 18.01, 0.000, 0.000, 0.000, 09:49:48.244, 7
148, 12.06, 0.00, 10.24, 14.54, 0.000, 0.000, 0.000, 09:49:48.245, 7
149, 12.67, 0.00, 14.62, 11.69, 0.000, 0.000, 0.000, 09:49:48.245, 7
150, 20.24, 0.00, 19.40, 21.00, 0.000, 0.000, 0.000, 09:49:48.245, 7
151, 16.15, 0.00, 15.71, 18.53, 0.000, 0.000, 0.000, 09:49:48.259, 7
152, 16.87, 0.00, 19.62, 11.49, 0.000, 0.000, 0.000, 09:49:48.260, 7
153, 10.38, 0.00, 16.26, 9.99, 0.000, 0.000, 0.000, 09:49:48.281, 7
154, 14.99, 0.00, 20.35, 23.91, 0.000, 0.000, 0.000, 09:49:48.281, 7
155, 15.59, 0.00, 20.52, 20.69, 0.000, 0.000, 0.000, 09:49:48.283, 7
156, 13.56, 0.00, 16.43, 12.98, 0.000, 0.000, 0.000, 09:49:48.284, 7
157, 14.08, 0.00, 15.51, 15.57, 0.000, 0.000, 0.000, 09:49:48.289, 7
158, 14.60, 0.00, 20.17, 18.58, 0.000, 0.000, 0.000, 09:49:48.290, 7
159, 16.26, 0.00, 19.92, 16.32, 0.000, 0.000, 0.000, 09:49:48.308, 7
160, 9.63, 0.00, 13.81, 12.00, 0.000, 0.000, 0.000, 09:49:48.308, 7
161, 14.84, 0.00, 14.59, 12.09, 0.000, 0.000, 0.000, 09:49:48.309, 7
162, 12.70, 0.00, 19.63, 17.77, 0.000, 0.000, 0.000, 09:49:48.309, 7
163, 17.01, 0.00, 18.72, 20.67, 0.000, 0.000, 0.000, 09:49:48.326, 7
164, 13.09, 0.00, 12.04, 10.13, 0.000, 0.000, 0.000, 09:49:48.326, 7
165, 14.67, 0.00, 11.34, 13.69, 0.000, 0.000, 0.000, 09:49:48.334, 7
166, 14.12, 0.00, 18.70, 22.00, 0.000, 0.000, 0.000, 09:49:48.336, 7
167, 17.21, 0.00, 24.31, 19.81, 0.000, 0.000, 0.000, 09:49:48.338, 7
168, 11.07, 0.00, 14.73, 13.09, 0.000, 0.000, 0.000, 09:49:48.338, 7
169, 12.26, 0.00, 13.19, 13.44, 0.000, 0.000, 0.000, 09:49:48.348, 7
170, 16.48, 0.00, 16.78, 18.20, 0.000, 0.000, 0.000, 09:49:48.349, 7
171, 15.12, 0.00, 19.79, 18.00, 0.000, 0.000, 0.000, 09:49:48.363, 7
172, 12.63, 0.00, 16.09, 17.32, 0.000, 0.000, 0.000, 09:49:48.364, 7
173, 16.82, 0.00, 12.95, 14.87, 0.000, 0.000, 0.000, 09:49:48.364, 7
174, 17.57, 0.00, 21.47, 17.80, 0.000, 0.000, 0.000, 09:49:48.364, 7
175, 16.95, 0.00, 21.37, 20.94, 0.000, 0.000, 0.000, 09:49:48.378, 7
176, 13.13, 0.00, 15.21, 13.04, 0.000, 0.000, 0.000, 09:49:48.378, 7
177, 16.57, 0.00, 15.76, 9.07, 0.000, 0.000, 0.000, 09:49:48.393, 7
178, 18.16, 0.00, 20.80, 21.20, 0.000, 0.000, 0.000, 09:49:48.393, 7
179, 21.47, 0.00, 17.93, 17.05, 0.000, 0.000, 0.000, 09:49:48.394, 7
180, 10.59, 0.00, 18.03, 10.77, 0.000, 0.000, 0.000, 09:49:48.394, 7
181, 8.94, 0.00, 12.91, 11.70, 0.000, 0.000, 0.000, 09:49:48.409, 7
182, 15.86, 0.00, 17.37, 19.44, 0.000, 0.000, 0.000, 09:49:48.409, 7
183, 19.31, 0.00, 17.95, 17.28, 0.000, 0.000, 0.000, 09:49:48.424, 7
184, 10.38, 0.00, 15.49, 11.79, 0.000, 0.000, 0.000, 09:49:48.424, 7
185, 10.11, 0.00, 16.14, 12.45, 0.000, 0.000, 0.000, 09:49:48.425, 7
186, 13.88, 0.00, 18.03, 16.50, 0.000, 0.000, 0.000, 09:49:48.425, 7
187, 15.81, 0.00, 19.73, 14.88, 0.000, 0.000, 0.000, 09:49:48.440, 7
188, 12.67, 0.00, 16.97, 15.25, 0.000, 0.000, 0.000, 09:49:48.440, 7
189, 16.13, 0.00, 11.80, 16.43, 0.000, 0.000, 0.000, 09:49:48.454, 7
190, 16.87, 0.00, 18.94, 20.36, 0.000, 0.000, 0.000, 09:49:48.455, 7
191, 14.33, 0.00, 19.79, 18.25, 0.000, 0.000, 0.000, 09:49:48.456, 7
192, 11.51, 0.00, 18.77, 12.30, 0.000, 0.000, 0.000, 09:49:48.457, 7
193, 14.01, 0.00, 18.87, 9.73, 0.000, 0.000, 0.000, 09:49:48.470, 7
194, 14.37, 0.00, 20.09, 19.35, 0.000, 0.000, 0.000, 09:49:48.471, 7
195, 14.57, 0.00, 18.59, 19.24, 0.000, 0.000, 0.000, 09:49:48.485, 7
196, 13.56, 0.00, 15.28, 16.20, 0.000, 0.000, 0.000, 09:49:48.486, 7
197, 12.05, 0.00, 12.91, 10.02, 0.000, 0.000, 0.000, 09:49:48.486, 7
198, 15.68, 0.00, 22.66, 20.46, 0.000, 0.000, 0.000, 09:49:48.487, 7
199, 21.45, 0.00, 20.31, 20.06, 0.000, 0.000, 0.000, 09:49:48.499, 7
200, 10.97, 0.00, 9.15, 14.20, 0.000, 0.000, 0.000, 09:49:48.499, 7
0, 12.40, 0.00, 12.72, 11.04, 0.000, 0.000, 0.000, 09:49:48.499, 7
1, 16.47, 0.00, 20.04, 18.71, 0.000, 0.000, 0.000, 09:49:48.514, 7
2, 19.82, 0.00, 21.73, 21.11, 0.000, 0.000, 0.000, 09:49:48.514, 7
3, 16.24, 0.00, 16.45, 15.41, 0.000, 0.000, 0.000, 09:49:48.529, 7
4, 15.09, 0.00, 13.90, 9.18, 0.000, 0.000, 0.000, 09:49:48.529, 7
5, 16.88, 0.00, 18.46, 20.65, 0.000, 0.000, 0.000, 09:49:48.533, 7
6, 12.70, 0.00, 19.40, 18.10, 0.000, 0.000, 0.000, 09:49:48.533, 7
7, 14.59, 0.00, 12.89, 20.34, 0.000, 0.000, 0.000, 09:49:48.544, 7
8, 7.16, 0.00, 11.26, 13.51, 0.000, 0.000, 0.000, 09:49:48.544, 7
9, 15.62, 0.00, 18.28, 17.24, 0.000, 0.000, 0.000, 09:49:48.559, 7
10, 15.05, 0.00, 22.71, 19.87, 0.000, 0.000, 0.000, 09:49:48.559, 7
11, 14.17, 0.00, 18.00, 13.42, 0.000, 0.000, 0.000, 09:49:48.559, 7
12, 14.43, 0.00, 16.64, 15.52, 0.000, 0.000, 0.000, 09:49:48.559, 7
13, 15.80, 0.00, 18.81, 16.24, 0.000, 0.000, 0.000, 09:49:48.574, 7
14, 15.11, 0.00, 22.36, 18.36, 0.000, 0.000, 0.000, 09:49:48.574, 7
15, 13.13, 0.00, 14.57, 18.71, 0.000, 0.000, 0.000, 09:49:48.589, 7
16, 14.53, 0.00, 17.96, 14.92, 0.000, 0.000, 0.000, 09:49:48.589, 7
17, 16.41, 0.00, 19.69, 19.94, 0.000, 0.000, 0.000, 09:49:48.589, 7
18, 16.16, 0.00, 19.02, 22.56, 0.000, 0.000, 0.000, 09:49:48.589, 7
19, 12.61, 0.00, 17.28, 13.07, 0.000, 0.000, 0.000, 09:49:48.604, 7
20, 16.77, 0.00, 12.19, 11.22, 0.000, 0.000, 0.000, 09:49:48.605, 7
21, 17.28, 0.00, 19.94, 18.41, 0.000, 0.000, 0.000, 09:49:48.619, 7
22, 15.11, 0.00, 21.06, 21.91, 0.000, 0.000, 0.000, 09:49:48.620, 7
23, 14.89, 0.00, 15.59, 13.60, 0.000, 0.000, 0.000, 09:49:48.620, 7
24, 12.62, 0.00, 15.89, 13.10, 0.000, 0.000, 0.000, 09:49:48.620, 7
25, 20.00, 0.00, 17.90, 19.91, 0.000, 0.000, 0.000, 09:49:48.634, 7
26, 14.99, 0.00, 21.60, 19.00, 0.000, 0.000, 0.000, 09:49:48.634, 7
27, 17.58, 0.00, 11.70, 10.04, 0.000, 0.000, 0.000, 09:49:48.649, 7
28, 11.15, 0.00, 11.92, 13.62, 0.000, 0.000, 0.000, 09:49:48.649, 7
29, 18.52, 0.00, 18.18, 16.87, 0.000, 0.000, 0.000, 09:49:48.650, 7
30, 16.15, 0.00, 20.67, 17.90, 0.000, 0.000, 0.000, 09:49:48.650, 7
31, 10.83, 0.00, 14.08, 12.71, 0.000, 0.000, 0.000, 09:49:48.664, 7
32, 8.73, 0.00, 11.89, 11.17, 0.000, 0.000, 0.000, 09:49:48.664, 7
33, 14.88, 0.00, 22.64, 20.92, 0.000, 0.000, 0.000, 09:49:48.679, 7
34, 21.64, 0.00, 23.51, 22.09, 0.000, 0.000, 0.000, 09:49:48.679, 7
35, 13.23, 0.00, 14.80, 14.95, 0.000, 0.000, 0.000, 09:49:48.686, 7
36, 12.17, 0.00, 12.87, 15.04, 0.000, 0.000, 0.000, 09:49:48.687, 7
37, 17.00, 0.00, 22.40, 20.49, 0.000, 0.000, 0.000, 09:49:48.709, 7
38, 17.86, 0.00, 20.24, 18.94, 0.000, 0.000, 0.000, 09:49:48.709, 7
39, 14.42, 0.00, 18.21, 16.82, 0.000, 0.000, 0.000, 09:49:48.709, 7
40, 9.66, 0.00, 10.70, 12.34, 0.000, 0.000, 0.000, 09:49:48.709, 7
41, 17.10, 0.00, 20.41, 18.70, 0.000, 0.000, 0.000, 09:49:48.710, 7
42, 18.07, 0.00, 23.23, 19.05, 0.000, 0.000, 0.000, 09:49:48.710, 7
43, 14.66, 0.00, 17.65, 8.52, 0.000, 0.000, 0.000, 09:49:48.724, 7
44, 10.70, 0.00, 14.22, 15.51, 0.000, 0.000, 0.000, 09:49:48.724, 7
45, 16.80, 0.00, 20.64, 18.90, 0.000, 0.000, 0.000, 09:49:48.741, 7
46, 16.89, 0.00, 17.66, 18.12, 0.000, 0.000, 0.000, 09:49:48.742, 7
47, 9.25, 0.00, 12.50, 13.56, 0.000, 0.000, 0.000, 09:49:48.742, 7
48, 13.14, 0.00, 14.52, 12.06, 0.000, 0.000, 0.000, 09:49:48.743, 7
49, 14.53, 0.00, 18.19, 18.24, 0.000, 0.000, 0.000, 09:49:48.754, 7
50, 21.05, 0.00, 23.15, 19.46, 0.000, 0.000, 0.000, 09:49:48.754, 7
51, 10.55, 0.00, 13.69, 13.79, 0.000, 0.000, 0.000, 09:49:48.769, 7
52, 8.99, 0.00, 8.44, 11.14, 0.000, 0.000, 0.000, 09:49:48.770, 7
53, 14.93, 0.00, 18.10, 20.54, 0.000, 0.000, 0.000, 09:49:48.771, 7
54, 15.88, 0.00, 17.58, 17.10, 0.000, 0.000, 0.000, 09:49:48.772, 7
55, 15.55, 0.00, 12.28, 9.55, 0.000, 0.000, 0.000, 09:49:48.784, 7
56, 7.71, 0.00, 11.48, 10.83, 0.000, 0.000, 0.000, 09:49:48.784, 7
57, 14.95, 0.00, 16.69, 17.08, 0.000, 0.000, 0.000, 09:49:48.800, 7
58, 17.40, 0.00, 22.57, 17.20, 0.000, 0.000, 0.000, 09:49:48.800, 7
59, 15.99, 0.00, 16.96, 10.68, 0.000, 0.000, 0.000, 09:49:48.801, 7
60, 11.75, 0.00, 11.89, 10.68, 0.000, 0.000, 0.000, 09:49:48.802, 7
61, 20.25, 0.00, 21.88, 16.03, 0.000, 0.000, 0.000, 09:49:48.815, 7
62, 19.20, 0.00, 20.06, 19.25, 0.000, 0.000, 0.000, 09:49:48.815, 7
63, 11.29, 0.00, 15.16, 11.57, 0.000, 0.000, 0.000, 09:49:48.830, 7
64, 12.05, 0.00, 13.61, 14.58, 0.000, 0.000, 0.000, 09:49:48.831, 7
65, 14.41, 0.00, 24.18, 18.03, 0.000, 0.000, 0.000, 09:49:48.831, 7
66, 13.80, 0.00, 18.37, 18.02, 0.000, 0.000, 0.000, 09:49:48.831, 7
67, 10.74, 0.00, 16.62, 12.13, 0.000, 0.000, 0.000, 09:49:48.845, 7
68, 14.17, 0.00, 14.77, 14.54, 0.000, 0.000, 0.000, 09:49:48.845, 7
69, 19.08, 0.00, 15.42, 20.98, 0.000, 0.000, 0.000, 09:49:48.860, 7
70, 16.44, 0.00, 19.26, 18.46, 0.000, 0.000, 0.000, 09:49:48.860, 7
71, 7.28, 0.00, 12.97, 9.63, 0.000, 0.000, 0.000, 09:49:48.861, 7
72, 14.48, 0.00, 16.88, 14.77, 0.000, 0.000, 0.000, 09:49:48.862, 7
73, 20.79, 0.00, 24.51, 22.98, 0.000, 0.000, 0.000, 09:49:48.875, 7
74, 14.87, 0.00, 19.41, 18.04, 0.000, 0.000, 0.000, 09:49:48.876, 7
75, 15.72, 0.00, 10.28, 13.29, 0.000, 0.000, 0.000, 09:49:48.891, 7
76, 12.64, 0.00, 14.69, 17.85, 0.000, 0.000, 0.000, 09:49:48.891, 7
77, 15.42, 0.00, 20.31, 18.18, 0.000, 0.000, 0.000, 09:49:48.892, 7
78, 15.57, 0.00, 20.35, 21.44, 0.000, 0.000, 0.000, 09:49:48.892, 7
79, 13.60, 0.00, 15.82, 14.97, 0.000, 0.000, 0.000, 09:49:48.904, 7
80, 11.43, 0.00, 13.54, 10.64, 0.000, 0.000, 0.000, 09:49:48.905, 7
81, 17.77, 0.00, 18.87, 19.33, 0.000, 0.000, 0.000, 09:49:48.920, 7
82, 19.45, 0.00, 21.63, 18.27, 0.000, 0.000, 0.000, 09:49:48.921, 7
83, 10.19, 0.00, 10.35, 12.16, 0.000, 0.000, 0.000, 09:49:48.934, 7
84, 14.25, 0.00, 15.96, 14.50, 0.000, 0.000, 0.000, 09:49:48.935, 7
85, 19.36, 0.00, 21.58, 20.04, 0.000, 0.000, 0.000, 09:49:48.937, 7
86, 15.38, 0.00, 18.60, 16.16, 0.000, 0.000, 0.000, 09:49:48.937, 7
87, 11.39, 0.00, 17.27, 13.58, 0.000, 0.000, 0.000, 09:49:48.965, 7
88, 12.27, 0.00, 15.11, 10.98, 0.000, 0.000, 0.000, 09:49:48.965, 7
89, 18.38, 0.00, 21.28, 15.08, 0.000, 0.000, 0.000, 09:49:48.966, 7
90, 15.75, 0.00, 17.79, 18.37, 0.000, 0.000, 0.000, 09:49:48.966, 7
91, 10.61, 0.00, 13.06, 11.92, 0.000, 0.000, 0.000, 09:49:48.967, 7
92, 12.79, 0.00, 13.93, 18.33, 0.000, 0.000, 0.000, 09:49:48.967, 7
93, 18.02, 0.00, 13.86, 20.07, 0.000, 0.000, 0.000, 09:49:48.967, 7
94, 16.48, 0.00, 19.92, 19.35, 0.000, 0.000, 0.000, 09:49:48.968, 7
95, 10.33, 0.00, 12.20, 13.44, 0.000, 0.000, 0.000, 09:49:48.979, 7
96, 12.26, 0.00, 15.68, 9.29, 0.000, 0.000, 0.000, 09:49:48.980, 7
97, 13.72, 0.00, 22.53, 23.71, 0.000, 0.000, 0.000, 09:49:48.994, 7
98, 19.18, 0.00, 23.66, 23.16, 0.000, 0.000, 0.000, 09:49:48.995, 7
99, 12.39, 0.00, 13.62, 13.28, 0.000, 0.000, 0.000, 09:49:49.010, 7
100, 14.14, 0.00, 14.23, 12.25, 0.000, 0.000, 0.000, 09:49:49.010, 7
101, 16.68, 0.00, 21.17, 15.98, 0.000, 0.000, 0.000, 09:49:49.011, 7
102, 20.58, 0.00, 20.91, 19.14, 0.000, 0.000, 0.000, 09:49:49.011, 7
103, 12.89, 0.00, 15.47, 16.92, 0.000, 0.000, 0.000, 09:49:49.025, 7
104, 13.07, 0.00, 13.59, 14.31, 0.000, 0.000, 0.000, 09:49:49.025, 7
105, 19.59, 0.00, 17.49, 21.09, 0.000, 0.000, 0.000, 09:49:49.040, 7
106, 17.51, 0.00, 22.15, 17.36, 0.000, 0.000, 0.000, 09:49:49.041, 7
107, 10.88, 0.00, 15.68, 12.63, 0.000, 0.000, 0.000, 09:49:49.041, 7
108, 9.71, 0.00, 15.89, 14.98, 0.000, 0.000, 0.000, 09:49:49.041, 7
109, 20.39, 0.00, 18.05, 18.03, 0.000, 0.000, 0.000, 09:49:49.054, 7
110, 17.27, 0.00, 19.97, 17.20, 0.000, 0.000, 0.000, 09:49:49.055, 7
111, 12.95, 0.00, 18.71, 16.77, 0.000, 0.000, 0.000, 09:49:49.069, 7
112, 9.73, 0.00, 17.51, 13.64, 0.000, 0.000, 0.000, 09:49:49.070, 7
113, 16.55, 0.00, 19.94, 20.83, 0.000, 0.000, 0.000, 09:49:49.071, 7
114, 17.41, 0.00, 18.42, 16.34, 0.000, 0.000, 0.000, 09:49:49.072, 7
115, 12.39, 0.00, 11.26, 11.52, 0.000, 0.000, 0.000, 09:49:49.084, 7
116, 14.59, 0.00, 14.28, 10.76, 0.000, 0.000, 0.000, 09:49:49.085, 7
117, 16.15, 0.00, 23.00, 19.32, 0.000, 0.000, 0.000, 09:49:49.100, 7
118, 16.14, 0.00, 17.75, 17.75, 0.000, 0.000, 0.000, 09:49:49.100, 7
119, 14.27, 0.00, 13.51, 11.46, 0.000, 0.000, 0.000, 09:49:49.101, 7
120, 12.05, 0.00, 11.85, 14.45, 0.000, 0.000, 0.000, 09:49:49.101, 7
121, 16.25, 0.00, 22.50, 14.70, 0.000, 0.000, 0.000, 09:49:49.114, 7
122, 17.21, 0.00, 21.51, 20.61, 0.000, 0.000, 0.000, 09:49:49.115, 7
123, 16.32, 0.00, 12.18, 14.15, 0.000, 0.000, 0.000, 09:49:49.129, 7
124, 13.26, 0.00, 12.99, 9.22, 0.000, 0.000, 0.000, 09:49:49.129, 7
125, 15.42, 0.00, 23.89, 21.71, 0.000, 0.000, 0.000, 09:49:49.130, 7
126, 16.73, 0.00, 22.31, 20.93, 0.000, 0.000, 0.000, 09:49:49.130, 7
127, 14.66, 0.00, 13.59, 13.58, 0.000, 0.000, 0.000, 09:49:49.144, 7
128, 10.09, 0.00, 11.43, 12.48, 0.000, 0.000, 0.000, 09:49:49.144, 7
129, 15.58, 0.00, 19.53, 21.20, 0.000, 0.000, 0.000, 09:49:49.159, 7
130, 15.88, 0.00, 19.84, 19.58, 0.000, 0.000, 0.000, 09:49:49.160, 7
131, 14.04, 0.00, 14.82, 14.52, 0.000, 0.000, 0.000, 09:49:49.160, 7
132, 10.84, 0.00, 11.32, 13.19, 0.000, 0.000, 0.000, 09:49:49.160, 7
133, 15.40, 0.00, 16.06, 17.79, 0.000, 0.000, 0.000, 09:49:49.175, 7
134, 15.22, 0.00, 21.37, 19.85, 0.000, 0.000, 0.000, 09:49:49.175, 7
135, 12.19, 0.00, 16.25, 16.97, 0.000, 0.000, 0.000, 09:49:49.191, 7
136, 10.03, 0.00, 13.06, 10.08, 0.000, 0.000, 0.000, 09:49:49.191, 7
137, 16.03, 0.00, 17.68, 17.40, 0.000, 0.000, 0.000, 09:49:49.192, 7
138, 20.47, 0.00, 21.08, 19.74, 0.000, 0.000, 0.000, 09:49:49.192, 7
139, 13.28, 0.00, 13.03, 12.33, 0.000, 0.000, 0.000, 09:49:49.205, 7
140, 7.68, 0.00, 14.88, 13.17, 0.000, 0.000, 0.000, 09:49:49.205, 7
141, 14.20, 0.00, 16.47, 19.22, 0.000, 0.000, 0.000, 09:49:49.221, 7
142, 14.91, 0.00, 20.06, 17.24, 0.000, 0.000, 0.000, 09:49:49.222, 7
143, 11.46, 0.00, 14.43, 15.06, 0.000, 0.000, 0.000, 09:49:49.222, 7
144, 14.59, 0.00, 14.43, 11.00, 0.000, 0.000, 0.000, 09:49:49.222, 7
145, 16.89, 0.00, 24.38, 18.11, 0.000, 0.000, 0.000, 09:49:49.235, 7
146, 14.23, 0.00, 22.08, 21.05, 0.000, 0.000, 0.000, 09:49:49.235, 7
147, 15.14, 0.00, 17.19, 12.50, 0.000, 0.000, 0.000, 09:49:49.250, 7
148, 13.35, 0.00, 15.40, 20.02, 0.000, 0.000, 0.000, 09:49:49.250, 7
149, 16.95, 0.00, 18.44, 19.60, 0.000, 0.000, 0.000, 09:49:49.251, 7
150, 19.59, 0.00, 26.25, 18.28, 0.000, 0.000, 0.000, 09:49:49.251, 7
151, 11.34, 0.00, 13.10, 15.31, 0.000, 0.000, 0.000, 09:49:49.264, 7
152, 14.22, 0.00, 10.21, 13.22, 0.000, 0.000, 0.000, 09:49:49.265, 7
153, 16.67, 0.00, 22.48, 18.83, 0.000, 0.000, 0.000, 09:49:49.280, 7
154, 13.84, 0.00, 23.48, 16.75, 0.000, 0.000, 0.000, 09:49:49.280, 7
155, 13.47, 0.00, 13.79, 11.97, 0.000, 0.000, 0.000, 09:49:49.281, 7
156, 12.72, 0.00, 12.79, 16.00, 0.000, 0.000, 0.000, 09:49:49.281, 7
157, 16.94, 0.00, 21.00, 21.13, 0.000, 0.000, 0.000, 09:49:49.295, 7
158, 19.15, 0.00, 24.04, 18.68, 0.000, 0.000, 0.000, 09:49:49.295, 7
159, 11.97, 0.00, 12.70, 11.46, 0.000, 0.000, 0.000, 09:49:49.309, 7
160, 14.04, 0.00, 12.94, 11.01, 0.000, 0.000, 0.000, 09:49:49.310, 7
161, 16.56, 0.00, 23.65, 19.23, 0.000, 0.000, 0.000, 09:49:49.311, 7
162, 18.28, 0.00, 17.58, 21.67, 0.000, 0.000, 0.000, 09:49:49.311, 7
163, 18.51, 0.00, 14.84, 13.93, 0.000, 0.000, 0.000, 09:49:49.325, 7
164, 6.87, 0.00, 15.05, 13.35, 0.000, 0.000, 0.000, 09:49:49.325, 7
165, 16.60, 0.00, 21.62, 16.99, 0.000, 0.000, 0.000, 09:49:49.341, 7
166, 19.16, 0.00, 17.78, 19.58, 0.000, 0.000, 0.000, 09:49:49.341, 7
167, 15.72, 0.00, 13.48, 9.73, 0.000, 0.000, 0.000, 09:49:49.342, 7
168, 16.12, 0.00, 13.82, 14.35, 0.000, 0.000, 0.000, 09:49:49.342, 7
169, 16.17, 0.00, 20.72, 17.94, 0.000, 0.000, 0.000, 09:49:49.354, 7
170, 12.55, 0.00, 22.65, 21.40, 0.000, 0.000, 0.000, 09:49:49.355, 7
171, 11.60, 0.00, 12.09, 10.44, 0.000, 0.000, 0.000, 09:49:49.370, 7
172, 10.60, 0.00, 13.09, 11.02, 0.000, 0.000, 0.000, 09:49:49.370, 7
173, 21.73, 0.00, 20.65, 24.61, 0.000, 0.000, 0.000, 09:49:49.371, 7
174, 17.93, 0.00, 18.97, 19.32, 0.000, 0.000, 0.000, 09:49:49.371, 7
175, 8.95, 0.00, 12.30, 9.56, 0.000, 0.000, 0.000, 09:49:49.384, 7
176, 10.68, 0.00, 14.41, 12.58, 0.000, 0.000, 0.000, 09:49:49.385, 7
177, 14.69, 0.00, 15.76, 19.79, 0.000, 0.000, 0.000, 09:49:49.400, 7
178, 15.85, 0.00, 22.27, 17.96, 0.000, 0.000, 0.000, 09:49:49.400, 7
179, 11.15, 0.00, 14.91, 14.27, 0.000, 0.000, 0.000, 09:49:49.401, 7
180, 12.10, 0.00, 13.54, 12.09, 0.000, 0.000, 0.000, 09:49:49.401, 7
181, 16.16, 0.00, 17.83, 21.64, 0.000, 0.000, 0.000, 09:49:49.414, 7
182, 16.00, 0.00, 22.73, 21.44, 0.000, 0.000, 0.000, 09:49:49.415, 7
183, 13.98, 0.00, 14.18, 11.71, 0.000, 0.000, 0.000, 09:49:49.429, 7
184, 12.85, 0.00, 13.25, 14.11, 0.000, 0.000, 0.000, 09:49:49.430, 7
185, 18.86, 0.00, 21.64, 21.74, 0.000, 0.000, 0.000, 09:49:49.430, 7
186, 16.34, 0.00, 23.85, 19.61, 0.000, 0.000, 0.000, 09:49:49.430, 7
187, 11.32, 0.00, 10.88, 14.52, 0.000, 0.000, 0.000, 09:49:49.444, 7
188, 13.18, 0.00, 6.94, 9.37, 0.000, 0.000, 0.000, 09:49:49.445, 7
189, 18.90, 0.00, 22.73, 15.99, 0.000, 0.000, 0.000, 09:49:49.459, 7
190, 14.73, 0.00, 16.21, 15.37, 0.000, 0.000, 0.000, 09:49:49.460, 7
191, 13.27, 0.00, 13.62, 12.63, 0.000, 0.000, 0.000, 09:49:49.460, 7
192, 11.76, 0.00, 15.30, 10.29, 0.000, 0.000, 0.000, 09:49:49.461, 7
193, 17.59, 0.00, 16.03, 16.14, 0.000, 0.000, 0.000, 09:49:49.475, 7
194, 16.63, 0.00, 17.86, 19.49, 0.000, 0.000, 0.000, 09:49:49.475, 7
195, 10.92, 0.00, 13.16, 15.38, 0.000, 0.000, 0.000, 09:49:49.489, 7
196, 12.42, 0.00, 13.76, 8.65, 0.000, 0.000, 0.000, 09:49:49.490, 7
197, 15.08, 0.00, 21.03, 16.85, 0.000, 0.000, 0.000, 09:49:49.491, 7
198, 18.15, 0.00, 22.64, 21.76, 0.000, 0.000, 0.000, 09:49:49.492, 7
199, 9.76, 0.00, 14.63, 14.40, 0.000, 0.000, 0.000, 09:49:49.504, 7
200, 12.79, 0.00, 13.39, 13.90, 0.000, 0.000, 0.000, 09:49:49.504, 7
0, 16.35, 0.00, 21.97, 17.83, 0.000, 0.000, 0.000, 09:49:49.505, 7
1, 15.97, 0.00, 24.61, 21.49, 0.000, 0.000, 0.000, 09:49:49.519, 7
2, 10.26, 0.00, 11.17, 12.90, 0.000, 0.000, 0.000, 09:49:49.520, 7
3, 14.91, 0.00, 13.69, 14.26, 0.000, 0.000, 0.000, 09:49:49.534, 7
4, 15.96, 0.00, 23.02, 21.71, 0.000, 0.000, 0.000, 09:49:49.534, 7
5, 16.67, 0.00, 20.93, 19.44, 0.000, 0.000, 0.000, 09:49:49.544, 7
6, 12.64, 0.00, 10.68, 10.52, 0.000, 0.000, 0.000, 09:49:49.544, 7
7, 11.12, 0.00, 14.57, 11.38, 0.000, 0.000, 0.000, 09:49:49.550, 7
8, 17.48, 0.00, 18.21, 19.54, 0.000, 0.000, 0.000, 09:49:49.550, 7
9, 20.20, 0.00, 18.24, 18.64, 0.000, 0.000, 0.000, 09:49:49.565, 7
10, 11.79, 0.00, 14.05, 16.78, 0.000, 0.000, 0.000, 09:49:49.565, 7
11, 10.05, 0.00, 11.78, 6.96, 0.000, 0.000, 0.000, 09:49:49.566, 7
12, 17.28, 0.00, 20.78, 17.95, 0.000, 0.000, 0.000, 09:49:49.566, 7
13, 16.94, 0.00, 19.72, 18.94, 0.000, 0.000, 0.000, 09:49:49.580, 7
14, 9.50, 0.00, 11.91, 17.01, 0.000, 0.000, 0.000, 09:49:49.580, 7
15, 9.96, 0.00, 8.62, 14.79, 0.000, 0.000, 0.000, 09:49:49.595, 7
16, 18.23, 0.00, 24.32, 17.82, 0.000, 0.000, 0.000, 09:49:49.595, 7
17, 17.18, 0.00, 19.79, 18.13, 0.000, 0.000, 0.000, 09:49:49.596, 7
18, 13.34, 0.00, 14.32, 12.48, 0.000, 0.000, 0.000, 09:49:49.596, 7
19, 10.98, 0.00, 13.54, 13.16, 0.000, 0.000, 0.000, 09:49:49.610, 7
20, 15.66, 0.00, 21.16, 14.73, 0.000, 0.000, 0.000, 09:49:49.611, 7
21, 17.06, 0.00, 20.88, 21.64, 0.000, 0.000, 0.000, 09:49:49.625, 7
22, 12.31, 0.00, 15.23, 13.65, 0.000, 0.000, 0.000, 09:49:49.626, 7
23, 9.58, 0.00, 16.45, 18.88, 0.000, 0.000, 0.000, 09:49:49.626, 7
24, 18.52, 0.00, 18.03, 21.01, 0.000, 0.000, 0.000, 09:49:49.626, 7
25, 17.94, 0.00, 20.73, 19.73, 0.000, 0.000, 0.000, 09:49:49.640, 7
26, 13.53, 0.00, 12.22, 16.15, 0.000, 0.000, 0.000, 09:49:49.640, 7
27, 12.47, 0.00, 15.10, 12.43, 0.000, 0.000, 0.000, 09:49:49.655, 7
28, 15.67, 0.00, 14.20, 18.67, 0.000, 0.000, 0.000, 09:49:49.655, 7
29, 17.38, 0.00, 22.47, 22.68, 0.000, 0.000, 0.000, 09:49:49.656, 7
30, 13.89, 0.00, 13.77, 14.98, 0.000, 0.000, 0.000, 09:49:49.656, 7
31, 15.92, 0.00, 15.69, 15.03, 0.000, 0.000, 0.000, 09:49:49.670, 7
32, 18.01, 0.00, 25.59, 19.73, 0.000, 0.000, 0.000, 09:49:49.671, 7
33, 17.40, 0.00, 23.50, 19.75, 0.000, 0.000, 0.000, 09:49:49.685, 7
34, 12.05, 0.00, 15.69, 13.85, 0.000, 0.000, 0.000, 09:49:49.685, 7
35, 12.74, 0.00, 17.40, 13.01, 0.000, 0.000, 0.000, 09:49:49.687, 7
36, 21.16, 0.00, 19.73, 17.41, 0.000, 0.000, 0.000, 09:49:49.687, 7
37, 18.83, 0.00, 22.51, 18.66, 0.000, 0.000, 0.000, 09:49:49.699, 7
38, 10.67, 0.00, 14.97, 12.06, 0.000, 0.000, 0.000, 09:49:49.700, 7
39, 13.54, 0.00, 16.78, 16.24, 0.000, 0.000, 0.000, 09:49:49.714, 7
40, 19.81, 0.00, 20.73, 19.18, 0.000, 0.000, 0.000, 09:49:49.715, 7
41, 15.64, 0.00, 18.47, 18.69, 0.000, 0.000, 0.000, 09:49:49.715, 7
42, 15.83, 0.00, 15.94, 13.33, 0.000, 0.000, 0.000, 09:49:49.715, 7
43, 14.94, 0.00, 14.59, 11.42, 0.000, 0.000, 0.000, 09:49:49.729, 7
44, 17.96, 0.00, 18.87, 17.51, 0.000, 0.000, 0.000, 09:49:49.730, 7
45, 18.35, 0.00, 21.83, 21.09, 0.000, 0.000, 0.000, 09:49:49.744, 7
46, 7.82, 0.00, 18.35, 10.85, 0.000, 0.000, 0.000, 09:49:49.745, 7
47, 11.07, 0.00, 10.66, 13.01, 0.000, 0.000, 0.000, 09:49:49.746, 7
48, 18.32, 0.00, 21.64, 19.50, 0.000, 0.000, 0.000, 09:49:49.746, 7
49, 14.66, 0.00, 20.42, 20.80, 0.000, 0.000, 0.000, 09:49:49.759, 7
50, 12.43, 0.00, 15.01, 10.34, 0.000, 0.000, 0.000, 09:49:49.760, 7
51, 12.24, 0.00, 13.62, 15.60, 0.000, 0.000, 0.000, 09:49:49.775, 7
52, 15.91, 0.00, 20.49, 19.19, 0.000, 0.000, 0.000, 09:49:49.775, 7
53, 19.00, 0.00, 19.63, 19.29, 0.000, 0.000, 0.000, 09:49:49.775, 7
54, 11.76, 0.00, 16.98, 11.58, 0.000, 0.000, 0.000, 09:49:49.776, 7
55, 11.03, 0.00, 16.15, 7.40, 0.000, 0.000, 0.000, 09:49:49.789, 7
56, 17.64, 0.00, 17.93, 19.43, 0.000, 0.000, 0.000, 09:49:49.790, 7
57, 17.81, 0.00, 22.20, 20.12, 0.000, 0.000, 0.000, 09:49:49.805, 7
58, 13.31, 0.00, 18.13, 19.66, 0.000, 0.000, 0.000, 09:49:49.805, 7
59, 7.60, 0.00, 10.49, 13.00, 0.000, 0.000, 0.000, 09:49:49.806, 7
60, 17.03, 0.00, 19.57, 17.74, 0.000, 0.000, 0.000, 09:49:49.807, 7
61, 16.12, 0.00, 20.60, 19.42, 0.000, 0.000, 0.000, 09:49:49.820, 7
62, 12.81, 0.00, 12.60, 15.77, 0.000, 0.000, 0.000, 09:49:49.821, 7
63, 15.51, 0.00, 9.07, 14.62, 0.000, 0.000, 0.000, 09:49:49.834, 7
64, 17.14, 0.00, 19.18, 17.38, 0.000, 0.000, 0.000, 09:49:49.835, 7
65, 19.86, 0.00, 17.10, 21.10, 0.000, 0.000, 0.000, 09:49:49.842, 7
66, 9.98, 0.00, 15.43, 13.75, 0.000, 0.000, 0.000, 09:49:49.843, 7
67, 12.57, 0.00, 15.51, 15.90, 0.000, 0.000, 0.000, 09:49:49.849, 7
68, 15.39, 0.00, 19.05, 17.30, 0.000, 0.000, 0.000, 09:49:49.849, 7
69, 18.40, 0.00, 22.94, 17.86, 0.000, 0.000, 0.000, 09:49:49.864, 7
70, 12.77, 0.00, 10.04, 9.81, 0.000, 0.000, 0.000, 09:49:49.865, 7
71, 12.18, 0.00, 14.86, 10.93, 0.000, 0.000, 0.000, 09:49:49.865, 7
72, 18.06, 0.00, 19.50, 17.37, 0.000, 0.000, 0.000, 09:49:49.866, 7
73, 12.59, 0.00, 20.83, 14.35, 0.000, 0.000, 0.000, 09:49:49.879, 7
74, 12.01, 0.00, 18.16, 14.61, 0.000, 0.000, 0.000, 09:49:49.879, 7
75, 14.08, 0.00, 12.88, 11.95, 0.000, 0.000, 0.000, 09:49:49.894, 7
76, 13.02, 0.00, 22.50, 16.92, 0.000, 0.000, 0.000, 09:49:49.895, 7
77, 16.67, 0.00, 19.52, 18.06, 0.000, 0.000, 0.000, 09:49:49.895, 7
78, 7.81, 0.00, 9.98, 13.00, 0.000, 0.000, 0.000, 09:49:49.896, 7
79, 13.28, 0.00, 13.32, 16.48, 0.000, 0.000, 0.000, 09:49:49.909, 7
80, 14.22, 0.00, 19.06, 18.91, 0.000, 0.000, 0.000, 09:49:49.909, 7
81, 18.56, 0.00, 19.31, 21.17, 0.000, 0.000, 0.000, 09:49:49.925, 7
82, 15.44, 0.00, 14.48, 13.38, 0.000, 0.000, 0.000, 09:49:49.926, 7
83, 11.40, 0.00, 12.76, 12.53, 0.000, 0.000, 0.000, 09:49:49.926, 7
84, 16.91, 0.00, 21.31, 20.71, 0.000, 0.000, 0.000, 09:49:49.926, 7
85, 17.23, 0.00, 22.59, 19.26, 0.000, 0.000, 0.000, 09:49:49.940, 7
86, 13.21, 0.00, 17.20, 12.55, 0.000, 0.000, 0.000, 09:49:49.940, 7
87, 14.74, 0.00, 18.16, 14.98, 0.000, 0.000, 0.000, 09:49:49.955, 7
88, 17.05, 0.00, 22.59, 15.58, 0.000, 0.000, 0.000, 09:49:49.955, 7
89, 13.04, 0.00, 18.96, 18.29, 0.000, 0.000, 0.000, 09:49:49.956, 7
90, 16.73, 0.00, 15.22, 16.89, 0.000, 0.000, 0.000, 09:49:49.956, 7
91, 18.07, 0.00, 15.45, 14.06, 0.000, 0.000, 0.000, 09:49:49.970, 7
92, 11.94, 0.00, 15.62, 19.28, 0.000, 0.000, 0.000, 09:49:49.971, 7
93, 14.85, 0.00, 19.23, 17.37, 0.000, 0.000, 0.000, 09:49:49.985, 7
94, 17.68, 0.00, 13.33, 13.71, 0.000, 0.000, 0.000, 09:49:49.986, 7
95, 13.04, 0.00, 12.40, 15.88, 0.000, 0.000, 0.000, 09:49:49.987, 7
96, 18.87, 0.00, 17.69, 20.03, 0.000, 0.000, 0.000, 09:49:49.988, 7
97, 16.12, 0.00, 22.98, 19.79, 0.000, 0.000, 0.000, 09:49:50.000, 7
98, 10.75, 0.00, 13.67, 10.17, 0.000, 0.000, 0.000, 09:49:50.000, 7
99, 10.66, 0.00, 11.59, 14.17, 0.000, 0.000, 0.000, 09:49:50.014, 7
100, 9.98, 0.00, 16.52, 14.22, 0.000, 0.000, 0.000, 09:49:50.015, 7
101, 20.69, 0.00, 19.32, 20.03, 0.000, 0.000, 0.000, 09:49:50.016, 7
102, 14.34, 0.00, 13.97, 12.31, 0.000, 0.000, 0.000, 09:49:50.016, 7
103, 9.39, 0.00, 12.97, 10.31, 0.000, 0.000, 0.000, 09:49:50.030, 7
104, 14.99, 0.00, 21.31, 17.41, 0.000, 0.000, 0.000, 09:49:50.030, 7
105, 16.85, 0.00, 22.33, 17.30, 0.000, 0.000, 0.000, 09:49:50.045, 7
106, 14.01, 0.00, 15.83, 14.87, 0.000, 0.000, 0.000, 09:49:50.045, 7
107, 18.39, 0.00, 16.15, 16.09, 0.000, 0.000, 0.000, 09:49:50.046, 7
108, 17.74, 0.00, 21.23, 20.64, 0.000, 0.000, 0.000, 09:49:50.046, 7
109, 17.18, 0.00, 22.04, 18.47, 0.000, 0.000, 0.000, 09:49:50.060, 7
110, 10.14, 0.00, 13.48, 14.20, 0.000, 0.000, 0.000, 09:49:50.060, 7
111, 12.14, 0.00, 10.51, 7.39, 0.000, 0.000, 0.000, 09:49:50.075, 7
112, 12.95, 0.00, 18.78, 19.27, 0.000, 0.000, 0.000, 09:49:50.075, 7
113, 16.87, 0.00, 17.92, 20.88, 0.000, 0.000, 0.000, 09:49:50.076, 7
114, 10.83, 0.00, 13.55, 13.62, 0.000, 0.000, 0.000, 09:49:50.076, 7
115, 12.53, 0.00, 14.82, 15.93, 0.000, 0.000, 0.000, 09:49:50.090, 7
116, 16.74, 0.00, 23.21, 19.87, 0.000, 0.000, 0.000, 09:49:50.090, 7
117, 17.92, 0.00, 17.62, 17.78, 0.000, 0.000, 0.000, 09:49:50.104, 7
118, 12.00, 0.00, 13.59, 12.70, 0.000, 0.000, 0.000, 09:49:50.105, 7
119, 11.18, 0.00, 16.80, 16.37, 0.000, 0.000, 0.000, 09:49:50.106, 7
120, 12.56, 0.00, 19.28, 16.90, 0.000, 0.000, 0.000, 09:49:50.106, 7
121, 16.08, 0.00, 20.47, 18.44, 0.000, 0.000, 0.000, 09:49:50.120, 7
122, 11.86, 0.00, 14.34, 14.79, 0.000, 0.000, 0.000, 09:49:50.120, 7
123, 11.63, 0.00, 10.32, 14.19, 0.000, 0.000, 0.000, 09:49:50.134, 7
124, 15.37, 0.00, 18.50, 15.79, 0.000, 0.000, 0.000, 09:49:50.134, 7
125, 20.38, 0.00, 20.08, 21.89, 0.000, 0.000, 0.000, 09:49:50.136, 7
126, 12.04, 0.00, 17.89, 16.97, 0.000, 0.000, 0.000, 09:49:50.137, 7
127, 12.01, 0.00, 12.60, 12.42, 0.000, 0.000, 0.000, 09:49:50.150, 7
128, 16.01, 0.00, 19.23, 17.93, 0.000, 0.000, 0.000, 09:49:50.150, 7
129, 15.38, 0.00, 16.79, 15.91, 0.000, 0.000, 0.000, 09:49:50.164, 7
130, 13.97, 0.00, 16.58, 15.66, 0.000, 0.000, 0.000, 09:49:50.165, 7
131, 13.09, 0.00, 14.38, 13.70, 0.000, 0.000, 0.000, 09:49:50.165, 7
132, 15.94, 0.00, 22.82, 19.20, 0.000, 0.000, 0.000, 09:49:50.165, 7
133, 20.45, 0.00, 22.34, 18.23, 0.000, 0.000, 0.000, 09:49:50.179, 7
134, 17.44, 0.00, 13.35, 15.23, 0.000, 0.000, 0.000, 09:49:50.180, 7
135, 13.41, 0.00, 15.22, 10.96, 0.000, 0.000, 0.000, 09:49:50.194, 7
136, 17.74, 0.00, 18.57, 19.11, 0.000, 0.000, 0.000, 09:49:50.195, 7
137, 15.21, 0.00, 18.42, 17.08, 0.000, 0.000, 0.000, 09:49:50.209, 7
138, 13.48, 0.00, 9.21, 15.61, 0.000, 0.000, 0.000, 09:49:50.210, 7
139, 12.48, 0.00, 13.06, 12.94, 0.000, 0.000, 0.000, 09:49:50.211, 7
140, 19.09, 0.00, 20.08, 21.36, 0.000, 0.000, 0.000, 09:49:50.211, 7
141, 16.56, 0.00, 18.65, 17.04, 0.000, 0.000, 0.000, 09:49:50.225, 7
142, 14.38, 0.00, 15.08, 12.39, 0.000, 0.000, 0.000, 09:49:50.225, 7
143, 13.03, 0.00, 17.53, 12.22, 0.000, 0.000, 0.000, 09:49:50.226, 7
144, 18.32, 0.00, 23.33, 16.64, 0.000, 0.000, 0.000, 09:49:50.226, 7
145, 14.93, 0.00, 19.83, 19.89, 0.000, 0.000, 0.000, 09:49:50.239, 7
146, 13.33, 0.00, 15.15, 14.98, 0.000, 0.000, 0.000, 09:49:50.240, 7
147, 10.60, 0.00, 14.02, 14.23, 0.000, 0.000, 0.000, 09:49:50.254, 7
148, 15.80, 0.00, 18.73, 17.02, 0.000, 0.000, 0.000, 09:49:50.255, 7
149, 15.93, 0.00, 21.60, 16.98, 0.000, 0.000, 0.000, 09:49:50.256, 7
150, 9.67, 0.00, 8.46, 11.39, 0.000, 0.000, 0.000, 09:49:50.256, 7
151, 13.21, 0.00, 15.04, 17.22, 0.000, 0.000, 0.000, 09:49:50.270, 7
152, 19.61, 0.00, 19.45, 21.21, 0.000, 0.000, 0.000, 09:49:50.270, 7
153, 17.93, 0.00, 22.79, 21.15, 0.000, 0.000, 0.000, 09:49:50.284, 7
154, 16.08, 0.00, 8.45, 16.09, 0.000, 0.000, 0.000, 09:49:50.284, 7
155, 10.12, 0.00, 15.73, 10.87, 0.000, 0.000, 0.000, 09:49:50.300, 7
156, 17.14, 0.00, 19.90, 19.62, 0.000, 0.000, 0.000, 09:49:50.300, 7
157, 16.04, 0.00, 18.87, 19.96, 0.000, 0.000, 0.000, 09:49:50.301, 7
158, 10.05, 0.00, 14.32, 9.36, 0.000, 0.000, 0.000, 09:49:50.302, 7
159, 10.28, 0.00, 11.15, 13.64, 0.000, 0.000, 0.000, 09:49:50.315, 7
160, 13.45, 0.00, 19.33, 13.90, 0.000, 0.000, 0.000, 09:49:50.315, 7
161, 17.33, 0.00, 23.52, 19.83, 0.000, 0.000, 0.000, 09:49:50.316, 7
162, 14.58, 0.00, 14.74, 12.56, 0.000, 0.000, 0.000, 09:49:50.316, 7
163, 12.23, 0.00, 14.76, 14.56, 0.000, 0.000, 0.000, 09:49:50.330, 7
164, 18.58, 0.00, 20.39, 18.52, 0.000, 0.000, 0.000, 09:49:50.330, 7
165, 14.99, 0.00, 19.32, 18.94, 0.000, 0.000, 0.000, 09:49:50.348, 7
166, 15.81, 0.00, 17.32, 14.82, 0.000, 0.000, 0.000, 09:49:50.348, 7
167, 9.37, 0.00, 10.04, 11.39, 0.000, 0.000, 0.000, 09:49:50.349, 7
168, 17.31, 0.00, 21.78, 17.56, 0.000, 0.000, 0.000, 09:49:50.349, 7
169, 14.17, 0.00, 21.96, 19.56, 0.000, 0.000, 0.000, 09:49:50.361, 7
170, 13.73, 0.00, 12.70, 14.23, 0.000, 0.000, 0.000, 09:49:50.361, 7
171, 15.62, 0.00, 14.66, 12.43, 0.000, 0.000, 0.000, 09:49:50.375, 7
172, 19.52, 0.00, 22.20, 17.55, 0.000, 0.000, 0.000, 09:49:50.376, 7
173, 16.76, 0.00, 14.78, 23.19, 0.000, 0.000, 0.000, 09:49:50.376, 7
174, 13.71, 0.00, 15.28, 11.38, 0.000, 0.000, 0.000, 09:49:50.377, 7
175, 9.54, 0.00, 13.38, 13.09, 0.000, 0.000, 0.000, 09:49:50.390, 7
176, 16.62, 0.00, 21.55, 22.78, 0.000, 0.000, 0.000, 09:49:50.390, 7
177, 19.34, 0.00, 21.82, 19.24, 0.000, 0.000, 0.000, 09:49:50.405, 7
178, 11.55, 0.00, 16.06, 14.86, 0.000, 0.000, 0.000, 09:49:50.405, 7
179, 14.47, 0.00, 13.51, 13.17, 0.000, 0.000, 0.000, 09:49:50.407, 7
180, 16.32, 0.00, 18.28, 16.54, 0.000, 0.000, 0.000, 09:49:50.407, 7
181, 14.12, 0.00, 19.37, 14.99, 0.000, 0.000, 0.000, 09:49:50.420, 7
182, 12.87, 0.00, 15.95, 10.49, 0.000, 0.000, 0.000, 09:49:50.420, 7
183, 10.29, 0.00, 17.37, 13.44, 0.000, 0.000, 0.000, 09:49:50.435, 7
184, 16.49, 0.00, 21.99, 21.69, 0.000, 0.000, 0.000, 09:49:50.436, 7
185, 19.19, 0.00, 19.75, 23.11, 0.000, 0.000, 0.000, 09:49:50.437, 7
186, 12.17, 0.00, 13.72, 14.54, 0.000, 0.000, 0.000, 09:49:50.437, 7
187, 6.39, 0.00, 10.31, 10.61, 0.000, 0.000, 0.000, 09:49:50.450, 7
188, 19.06, 0.00, 21.11, 18.48, 0.000, 0.000, 0.000, 09:49:50.450, 7
189, 15.23, 0.00, 19.40, 17.92, 0.000, 0.000, 0.000, 09:49:50.464, 7
190, 12.22, 0.00, 10.99, 8.78, 0.000, 0.000, 0.000, 09:49:50.465, 7
191, 11.82, 0.00, 12.60, 15.41, 0.000, 0.000, 0.000, 09:49:50.465, 7
192, 15.95, 0.00, 22.27, 18.09, 0.000, 0.000, 0.000, 09:49:50.466, 7
193, 17.29, 0.00, 23.05, 19.35, 0.000, 0.000, 0.000, 09:49:50.480, 7
194, 13.40, 0.00, 16.39, 13.06, 0.000, 0.000, 0.000, 09:49:50.480, 7
195, 12.02, 0.00, 18.37, 13.81, 0.000, 0.000, 0.000, 09:49:50.494, 7
196, 15.22, 0.00, 19.45, 18.80, 0.000, 0.000, 0.000, 09:49:50.495, 7
197, 15.64, 0.00, 19.93, 21.48, 0.000, 0.000, 0.000, 09:49:50.495, 7
198, 12.21, 0.00, 12.12, 12.22, 0.000, 0.000, 0.000, 09:49:50.495, 7
199, 11.17, 0.00, 9.73, 8.75, 0.000, 0.000, 0.000, 09:49:50.509, 7
200, 15.71, 0.00, 20.32, 17.72, 0.000, 0.000, 0.000, 09:49:50.510, 7
0, 15.76, 0.00, 23.07, 14.57, 0.000, 0.000, 0.000, 09:49:50.510, 7
1, 15.98, 0.00, 13.13, 12.36, 0.000, 0.000, 0.000, 09:49:50.525, 7
2, 15.06, 0.00, 14.66, 10.72, 0.000, 0.000, 0.000, 09:49:50.525, 7
3, 15.55, 0.00, 18.86, 18.34, 0.000, 0.000, 0.000, 09:49:50.540, 7
4, 19.10, 0.00, 21.40, 22.05, 0.000, 0.000, 0.000, 09:49:50.541, 7
5, 10.88, 0.00, 11.23, 10.72, 0.000, 0.000, 0.000, 09:49:50.542, 7
6, 11.80, 0.00, 12.60, 14.13, 0.000, 0.000, 0.000, 09:49:50.542, 7
7, 15.95, 0.00, 19.30, 16.83, 0.000, 0.000, 0.000, 09:49:50.561, 7
8, 15.37, 0.00, 23.36, 19.99, 0.000, 0.000, 0.000, 09:49:50.561, 7
9, 12.78, 0.00, 15.32, 16.92, 0.000, 0.000, 0.000, 09:49:50.570, 7
10, 15.70, 0.00, 13.77, 15.85, 0.000, 0.000, 0.000, 09:49:50.571, 7
11, 14.18, 0.00, 23.78, 21.68, 0.000, 0.000, 0.000, 09:49:50.572, 7
12, 20.11, 0.00, 19.18, 21.43, 0.000, 0.000, 0.000, 09:49:50.572, 7
13, 17.14, 0.00, 15.10, 14.74, 0.000, 0.000, 0.000, 09:49:50.584, 7
14, 14.80, 0.00, 17.25, 17.15, 0.000, 0.000, 0.000, 09:49:50.585, 7
15, 14.85, 0.00, 20.26, 19.27, 0.000, 0.000, 0.000, 09:49:50.599, 7
16, 16.94, 0.00, 21.26, 17.65, 0.000, 0.000, 0.000, 09:49:50.599, 7
17, 13.26, 0.00, 12.46, 13.61, 0.000, 0.000, 0.000, 09:49:50.600, 7
18, 15.54, 0.00, 15.62, 12.95, 0.000, 0.000, 0.000, 09:49:50.600, 7
19, 20.38, 0.00, 21.57, 20.11, 0.000, 0.000, 0.000, 09:49:50.614, 7
20, 19.89, 0.00, 21.87, 22.59, 0.000, 0.000, 0.000, 09:49:50.614, 7
21, 13.54, 0.00, 14.35, 12.93, 0.000, 0.000, 0.000, 09:49:50.629, 7
22, 13.40, 0.00, 16.91, 12.88, 0.000, 0.000, 0.000, 09:49:50.629, 7
23, 15.86, 0.00, 24.67, 15.86, 0.000, 0.000, 0.000, 09:49:50.630, 7
24, 12.55, 0.00, 16.58, 19.29, 0.000, 0.000, 0.000, 09:49:50.630, 7
25, 13.97, 0.00, 16.48, 14.26, 0.000, 0.000, 0.000, 09:49:50.644, 7
26, 10.95, 0.00, 13.34, 12.68, 0.000, 0.000, 0.000, 09:49:50.644, 7
27, 16.61, 0.00, 19.44, 17.64, 0.000, 0.000, 0.000, 09:49:50.659, 7
28, 18.49, 0.00, 20.80, 19.94, 0.000, 0.000, 0.000, 09:49:50.659, 7
29, 11.81, 0.00, 16.89, 13.37, 0.000, 0.000, 0.000, 09:49:50.660, 7
30, 12.78, 0.00, 17.07, 10.10, 0.000, 0.000, 0.000, 09:49:50.660, 7
31, 18.78, 0.00, 18.11, 18.82, 0.000, 0.000, 0.000, 09:49:50.675, 7
32, 17.85, 0.00, 19.19, 21.12, 0.000, 0.000, 0.000, 09:49:50.676, 7
33, 11.11, 0.00, 10.88, 12.88, 0.000, 0.000, 0.000, 09:49:50.691, 7
34, 14.23, 0.00, 13.20, 13.32, 0.000, 0.000, 0.000, 09:49:50.691, 7
35, 15.73, 0.00, 18.36, 15.47, 0.000, 0.000, 0.000, 09:49:50.692, 7
36, 17.11, 0.00, 17.11, 17.96, 0.000, 0.000, 0.000, 09:49:50.692, 7
37, 9.55, 0.00, 14.15, 12.05, 0.000, 0.000, 0.000, 09:49:50.705, 7
38, 11.67, 0.00, 13.36, 13.37, 0.000, 0.000, 0.000, 09:49:50.705, 7
39, 17.39, 0.00, 21.57, 20.31, 0.000, 0.000, 0.000, 09:49:50.720, 7
40, 19.37, 0.00, 19.38, 19.63, 0.000, 0.000, 0.000, 09:49:50.721, 7
41, 12.97, 0.00, 16.68, 13.90, 0.000, 0.000, 0.000, 09:49:50.722, 7
42, 11.47, 0.00, 12.13, 15.25, 0.000, 0.000, 0.000, 09:49:50.722, 7
43, 16.69, 0.00, 22.91, 22.70, 0.000, 0.000, 0.000, 09:49:50.735, 7
44, 19.48, 0.00, 17.40, 15.15, 0.000, 0.000, 0.000, 09:49:50.735, 7
45, 9.60, 0.00, 13.64, 10.56, 0.000, 0.000, 0.000, 09:49:50.750, 7
46, 14.82, 0.00, 15.08, 14.75, 0.000, 0.000, 0.000, 09:49:50.751, 7
47, 12.94, 0.00, 18.60, 18.55, 0.000, 0.000, 0.000, 09:49:50.751, 7
48, 13.95, 0.00, 15.18, 17.73, 0.000, 0.000, 0.000, 09:49:50.751, 7
49, 11.31, 0.00, 15.20, 13.21, 0.000, 0.000, 0.000, 09:49:50.765, 7
50, 16.19, 0.00, 15.22, 14.08, 0.000, 0.000, 0.000, 09:49:50.765, 7
51, 14.68, 0.00, 19.53, 16.14, 0.000, 0.000, 0.000, 09:49:50.780, 7
52, 19.24, 0.00, 23.03, 17.60, 0.000, 0.000, 0.000, 09:49:50.780, 7
53, 11.44, 0.00, 15.55, 10.22, 0.000, 0.000, 0.000, 09:49:50.781, 7
54, 7.33, 0.00, 14.88, 11.20, 0.000, 0.000, 0.000, 09:49:50.781, 7
55, 18.69, 0.00, 23.01, 19.61, 0.000, 0.000, 0.000, 09:49:50.794, 7
56, 15.02, 0.00, 19.49, 21.54, 0.000, 0.000, 0.000, 09:49:50.795, 7
57, 11.95, 0.00, 11.80, 15.23, 0.000, 0.000, 0.000, 09:49:50.809, 7
58, 10.55, 0.00, 15.31, 15.55, 0.000, 0.000, 0.000, 09:49:50.810, 7
59, 14.78, 0.00, 21.02, 19.57, 0.000, 0.000, 0.000, 09:49:50.811, 7
60, 20.43, 0.00, 18.35, 20.02, 0.000, 0.000, 0.000, 09:49:50.811, 7
61, 11.89, 0.00, 10.16, 12.81, 0.000, 0.000, 0.000, 09:49:50.825, 7
62, 11.54, 0.00, 15.73, 13.27, 0.000, 0.000, 0.000, 09:49:50.825, 7
63, 14.31, 0.00, 18.25, 20.12, 0.000, 0.000, 0.000, 09:49:50.841, 7
64, 15.36, 0.00, 18.75, 19.56, 0.000, 0.000, 0.000, 09:49:50.841, 7
65, 13.14, 0.00, 16.59, 16.24, 0.000, 0.000, 0.000, 09:49:50.841, 7
66, 12.92, 0.00, 13.42, 12.13, 0.000, 0.000, 0.000, 09:49:50.842, 7
67, 21.71, 0.00, 20.41, 20.18, 0.000, 0.000, 0.000, 09:49:50.854, 7
68, 17.94, 0.00, 22.62, 20.69, 0.000, 0.000, 0.000, 09:49:50.855, 7
69, 17.37, 0.00, 17.96, 12.41, 0.000, 0.000, 0.000, 09:49:50.870, 7
70, 10.16, 0.00, 11.66, 10.22, 0.000, 0.000, 0.000, 09:49:50.871, 7
71, 19.17, 0.00, 18.95, 16.27, 0.000, 0.000, 0.000, 09:49:50.871, 7
72, 12.60, 0.00, 18.81, 20.47, 0.000, 0.000, 0.000, 09:49:50.872, 7
73, 13.45, 0.00, 16.14, 13.53, 0.000, 0.000, 0.000, 09:49:50.884, 7
74, 12.59, 0.00, 11.88, 14.45, 0.000, 0.000, 0.000, 09:49:50.885, 7
75, 16.30, 0.00, 18.72, 18.67, 0.000, 0.000, 0.000, 09:49:50.899, 7
76, 18.58, 0.00, 22.04, 17.20, 0.000, 0.000, 0.000, 09:49:50.900, 7
77, 14.97, 0.00, 10.84, 12.43, 0.000, 0.000, 0.000, 09:49:50.900, 7
78, 13.00, 0.00, 16.35, 11.71, 0.000, 0.000, 0.000, 09:49:50.901, 7
79, 16.18, 0.00, 19.59, 17.12, 0.000, 0.000, 0.000, 09:49:50.914, 7
80, 17.95, 0.00, 19.43, 21.20, 0.000, 0.000, 0.000, 09:49:50.915, 7
81, 13.29, 0.00, 13.67, 13.77, 0.000, 0.000, 0.000, 09:49:50.929, 7
82, 8.70, 0.00, 14.12, 15.57, 0.000, 0.000, 0.000, 09:49:50.929, 7
83, 16.28, 0.00, 20.61, 17.99, 0.000, 0.000, 0.000, 09:49:50.930, 7
84, 14.59, 0.00, 19.53, 15.57, 0.000, 0.000, 0.000, 09:49:50.930, 7
85, 11.55, 0.00, 13.06, 10.24, 0.000, 0.000, 0.000, 09:49:50.944, 7
86, 13.07, 0.00, 15.60, 13.99, 0.000, 0.000, 0.000, 09:49:50.945, 7
87, 17.78, 0.00, 19.65, 17.31, 0.000, 0.000, 0.000, 09:49:50.959, 7
88, 17.32, 0.00, 25.38, 20.18, 0.000, 0.000, 0.000, 09:49:50.960, 7
89, 13.34, 0.00, 16.18, 14.79, 0.000, 0.000, 0.000, 09:49:50.960, 7
90, 14.31, 0.00, 14.68, 9.88, 0.000, 0.000, 0.000, 09:49:50.961, 7
91, 16.36, 0.00, 18.74, 16.95, 0.000, 0.000, 0.000, 09:49:50.975, 7
92, 15.93, 0.00, 22.80, 17.01, 0.000, 0.000, 0.000, 09:49:50.975, 7
93, 11.30, 0.00, 14.30, 9.60, 0.000, 0.000, 0.000, 09:49:50.990, 7
94, 8.43, 0.00, 13.79, 11.89, 0.000, 0.000, 0.000, 09:49:50.990, 7
95, 16.11, 0.00, 18.13, 21.18, 0.000, 0.000, 0.000, 09:49:50.991, 7
96, 20.78, 0.00, 19.67, 20.93, 0.000, 0.000, 0.000, 09:49:50.992, 7
97, 17.20, 0.00, 18.01, 14.89, 0.000, 0.000, 0.000, 09:49:51.004, 7
98, 13.63, 0.00, 15.38, 13.01, 0.000, 0.000, 0.000, 09:49:51.004, 7
99, 15.13, 0.00, 20.56, 20.14, 0.000, 0.000, 0.000, 09:49:51.020, 7
100, 14.75, 0.00, 18.90, 17.84, 0.000, 0.000, 0.000, 09:49:51.020, 7
101, 10.63, 0.00, 10.99, 14.94, 0.000, 0.000, 0.000, 09:49:51.021, 7
102, 10.82, 0.00, 12.18, 12.13, 0.000, 0.000, 0.000, 09:49:51.022, 7
103, 18.13, 0.00, 19.93, 17.33, 0.000, 0.000, 0.000, 09:49:51.041, 7
104, 18.81, 0.00, 20.66, 21.84, 0.000, 0.000, 0.000, 09:49:51.041, 7
105, 7.95, 0.00, 13.50, 15.99, 0.000, 0.000, 0.000, 09:49:51.050, 7
106, 15.77, 0.00, 14.97, 12.35, 0.000, 0.000, 0.000, 09:49:51.051, 7
107, 15.08, 0.00, 18.56, 17.98, 0.000, 0.000, 0.000, 09:49:51.052, 7
108, 14.06, 0.00, 21.67, 18.37, 0.000, 0.000, 0.000, 09:49:51.052, 7
109, 10.63, 0.00, 11.22, 9.64, 0.000, 0.000, 0.000, 09:49:51.065, 7
110, 13.13, 0.00, 15.06, 16.67, 0.000, 0.000, 0.000, 09:49:51.065, 7
111, 19.58, 0.00, 20.31, 20.14, 0.000, 0.000, 0.000, 09:49:51.080, 7
112, 17.56, 0.00, 18.83, 17.28, 0.000, 0.000, 0.000, 09:49:51.080, 7
113, 14.49, 0.00, 13.11, 12.19, 0.000, 0.000, 0.000, 09:49:51.081, 7
114, 8.40, 0.00, 10.55, 9.76, 0.000, 0.000, 0.000, 09:49:51.081, 7
115, 16.53, 0.00, 19.95, 22.01, 0.000, 0.000, 0.000, 09:49:51.095, 7
116, 15.75, 0.00, 19.76, 17.32, 0.000, 0.000, 0.000, 09:49:51.095, 7
117, 11.39, 0.00, 13.33, 11.49, 0.000, 0.000, 0.000, 09:49:51.110, 7
118, 11.52, 0.00, 16.28, 12.33, 0.000, 0.000, 0.000, 09:49:51.110, 7
119, 14.27, 0.00, 19.07, 18.06, 0.000, 0.000, 0.000, 09:49:51.111, 7
120, 15.53, 0.00, 20.56, 21.87, 0.000, 0.000, 0.000, 09:49:51.111, 7
121, 14.74, 0.00, 13.63, 10.79, 0.000, 0.000, 0.000, 09:49:51.125, 7
122, 10.45, 0.00, 10.11, 15.54, 0.000, 0.000, 0.000, 09:49:51.125, 7
123, 17.88, 0.00, 17.34, 19.82, 0.000, 0.000, 0.000, 09:49:51.140, 7
124, 17.66, 0.00, 23.24, 20.04, 0.000, 0.000, 0.000, 09:49:51.141, 7
125, 14.37, 0.00, 14.28, 12.49, 0.000, 0.000, 0.000, 09:49:51.141, 7
126, 14.12, 0.00, 11.84, 12.63, 0.000, 0.000, 0.000, 09:49:51.142, 7
127, 13.60, 0.00, 21.19, 18.04, 0.000, 0.000, 0.000, 09:49:51.155, 7
128, 18.37, 0.00, 20.75, 19.32, 0.000, 0.000, 0.000, 09:49:51.155, 7
129, 11.55, 0.00, 16.96, 14.14, 0.000, 0.000, 0.000, 09:49:51.170, 7
130, 10.18, 0.00, 14.62, 12.47, 0.000, 0.000, 0.000, 09:49:51.171, 7
131, 16.77, 0.00, 21.99, 21.58, 0.000, 0.000, 0.000, 09:49:51.172, 7
132, 18.53, 0.00, 24.13, 22.32, 0.000, 0.000, 0.000, 09:49:51.173, 7
133, 14.17, 0.00, 20.43, 15.51, 0.000, 0.000, 0.000, 09:49:51.184, 7
134, 13.95, 0.00, 12.26, 14.07, 0.000, 0.000, 0.000, 09:49:51.185, 7
135, 16.23, 0.00, 15.70, 18.99, 0.000, 0.000, 0.000, 09:49:51.199, 7
136, 16.67, 0.00, 22.66, 15.17, 0.000, 0.000, 0.000, 09:49:51.200, 7
137, 9.66, 0.00, 17.50, 12.45, 0.000, 0.000, 0.000, 09:49:51.200, 7
138, 11.12, 0.00, 10.90, 10.84, 0.000, 0.000, 0.000, 09:49:51.201, 7
139, 21.49, 0.00, 21.28, 15.58, 0.000, 0.000, 0.000, 09:49:51.215, 7
140, 15.73, 0.00, 21.62, 17.90, 0.000, 0.000, 0.000, 09:49:51.215, 7
141, 14.16, 0.00, 18.12, 15.95, 0.000, 0.000, 0.000, 09:49:51.229, 7
142, 15.03, 0.00, 15.18, 16.97, 0.000, 0.000, 0.000, 09:49:51.230, 7
143, 15.64, 0.00, 22.10, 19.20, 0.000, 0.000, 0.000, 09:49:51.231, 7
144, 16.85, 0.00, 21.37, 19.20, 0.000, 0.000, 0.000, 09:49:51.231, 7
145, 12.38, 0.00, 12.55, 14.36, 0.000, 0.000, 0.000, 09:49:51.244, 7
146, 7.58, 0.00, 16.06, 11.64, 0.000, 0.000, 0.000, 09:49:51.245, 7
147, 12.17, 0.00, 15.50, 12.77, 0.000, 0.000, 0.000, 09:49:51.260, 7
148, 15.76, 0.00, 20.93, 17.23, 0.000, 0.000, 0.000, 09:49:51.260, 7
149, 15.18, 0.00, 13.17, 13.29, 0.000, 0.000, 0.000, 09:49:51.261, 7
150, 7.67, 0.00, 13.32, 11.60, 0.000, 0.000, 0.000, 09:49:51.261, 7
151, 23.03, 0.00, 22.27, 19.10, 0.000, 0.000, 0.000, 09:49:51.275, 7
152, 18.78, 0.00, 22.25, 22.23, 0.000, 0.000, 0.000, 09:49:51.275, 7
153, 11.44, 0.00, 13.75, 14.63, 0.000, 0.000, 0.000, 09:49:51.291, 7
154, 14.48, 0.00, 12.19, 12.71, 0.000, 0.000, 0.000, 09:49:51.291, 7
155, 21.34, 0.00, 19.23, 27.03, 0.000, 0.000, 0.000, 09:49:51.292, 7
156, 16.83, 0.00, 19.48, 22.46, 0.000, 0.000, 0.000, 09:49:51.292, 7
157, 11.50, 0.00, 15.29, 14.57, 0.000, 0.000, 0.000, 09:49:51.304, 7
158, 12.58, 0.00, 11.52, 15.37, 0.000, 0.000, 0.000, 09:49:51.304, 7
159, 16.64, 0.00, 21.20, 20.62, 0.000, 0.000, 0.000, 09:49:51.320, 7
160, 19.28, 0.00, 21.96, 18.33, 0.000, 0.000, 0.000, 09:49:51.321, 7
161, 14.94, 0.00, 16.50, 13.75, 0.000, 0.000, 0.000, 09:49:51.321, 7
162, 11.66, 0.00, 15.51, 9.72, 0.000, 0.000, 0.000, 09:49:51.322, 7
163, 16.76, 0.00, 16.91, 23.19, 0.000, 0.000, 0.000, 09:49:51.334, 7
164, 16.66, 0.00, 21.87, 20.02, 0.000, 0.000, 0.000, 09:49:51.336, 7
165, 13.81, 0.00, 12.65, 15.63, 0.000, 0.000, 0.000, 09:49:51.349, 7
166, 14.22, 0.00, 16.38, 10.43, 0.000, 0.000, 0.000, 09:49:51.350, 7
167, 14.63, 0.00, 18.65, 14.44, 0.000, 0.000, 0.000, 09:49:51.350, 7
168, 16.09, 0.00, 17.75, 17.26, 0.000, 0.000, 0.000, 09:49:51.351, 7
169, 12.00, 0.00, 13.76, 14.97, 0.000, 0.000, 0.000, 09:49:51.364, 7
170, 9.72, 0.00, 13.01, 12.48, 0.000, 0.000, 0.000, 09:49:51.364, 7
171, 13.64, 0.00, 23.95, 21.48, 0.000, 0.000, 0.000, 09:49:51.378, 7
172, 15.08, 0.00, 21.10, 22.30, 0.000, 0.000, 0.000, 09:49:51.379, 7
173, 14.98, 0.00, 13.96, 13.38, 0.000, 0.000, 0.000, 09:49:51.386, 7
174, 13.14, 0.00, 13.11, 9.92, 0.000, 0.000, 0.000, 09:49:51.386, 7
175, 15.22, 0.00, 17.45, 18.23, 0.000, 0.000, 0.000, 09:49:51.393, 7
176, 16.79, 0.00, 21.02, 21.39, 0.000, 0.000, 0.000, 09:49:51.394, 7
177, 10.54, 0.00, 11.43, 7.71, 0.000, 0.000, 0.000, 09:49:51.408, 7
178, 11.39, 0.00, 11.09, 12.90, 0.000, 0.000, 0.000, 09:49:51.408, 7
179, 15.40, 0.00, 17.97, 21.47, 0.000, 0.000, 0.000, 09:49:51.409, 7
180, 20.67, 0.00, 23.86, 21.93, 0.000, 0.000, 0.000, 09:49:51.410, 7
181, 13.67, 0.00, 13.82, 15.02, 0.000, 0.000, 0.000, 09:49:51.425, 7
182, 15.81, 0.00, 15.53, 14.54, 0.000, 0.000, 0.000, 09:49:51.425, 7
183, 17.60, 0.00, 21.15, 15.99, 0.000, 0.000, 0.000, 09:49:51.441, 7
184, 18.65, 0.00, 21.54, 23.14, 0.000, 0.000, 0.000, 09:49:51.441, 7
185, 10.65, 0.00, 12.72, 10.91, 0.000, 0.000, 0.000, 09:49:51.441, 7
186, 9.20, 0.00, 13.75, 12.66, 0.000, 0.000, 0.000, 09:49:51.442, 7
187, 13.80, 0.00, 18.37, 17.92, 0.000, 0.000, 0.000, 09:49:51.454, 7
188, 15.49, 0.00, 26.34, 17.87, 0.000, 0.000, 0.000, 09:49:51.455, 7
189, 16.10, 0.00, 11.71, 12.55, 0.000, 0.000, 0.000, 09:49:51.469, 7
190, 11.91, 0.00, 9.64, 13.53, 0.000, 0.000, 0.000, 09:49:51.469, 7
191, 15.15, 0.00, 19.42, 17.92, 0.000, 0.000, 0.000, 09:49:51.470, 7
192, 16.69, 0.00, 18.91, 15.52, 0.000, 0.000, 0.000, 09:49:51.470, 7
193, 12.96, 0.00, 13.21, 12.35, 0.000, 0.000, 0.000, 09:49:51.485, 7
194, 10.24, 0.00, 12.67, 9.79, 0.000, 0.000, 0.000, 09:49:51.485, 7
195, 17.77, 0.00, 20.77, 18.46, 0.000, 0.000, 0.000, 09:49:51.499, 7
196, 18.98, 0.00, 19.75, 20.63, 0.000, 0.000, 0.000, 09:49:51.499, 7
197, 13.84, 0.00, 13.42, 16.97, 0.000, 0.000, 0.000, 09:49:51.500, 7
198, 10.78, 0.00, 12.96, 12.71, 0.000, 0.000, 0.000, 09:49:51.500, 7
199, 19.06, 0.00, 21.53, 15.51, 0.000, 0.000, 0.000, 09:49:51.514, 7
200, 17.05, 0.00, 24.29, 20.50, 0.000, 0.000, 0.000, 09:49:51.514, 7
0, 10.59, 0.00, 16.16, 15.33, 0.000, 0.000, 0.000, 09:49:51.515, 7
1, 12.90, 0.00, 13.44, 11.72, 0.000, 0.000, 0.000, 09:49:51.530, 7
2, 17.88, 0.00, 19.13, 19.14, 0.000, 0.000, 0.000, 09:49:51.530, 7
3, 12.71, 0.00, 18.68, 20.64, 0.000, 0.000, 0.000, 09:49:51.545, 7
4, 12.89, 0.00, 14.73, 16.05, 0.000, 0.000, 0.000, 09:49:51.545, 7
5, 13.96, 0.00, 15.39, 14.93, 0.000, 0.000, 0.000, 09:49:51.546, 7
6, 16.38, 0.00, 21.21, 17.20, 0.000, 0.000, 0.000, 09:49:51.546, 7
7, 14.47, 0.00, 20.40, 18.51, 0.000, 0.000, 0.000, 09:49:51.560, 7
8, 15.92, 0.00, 18.46, 17.96, 0.000, 0.000, 0.000, 09:49:51.560, 7
9, 13.35, 0.00, 11.59, 8.63, 0.000, 0.000, 0.000, 09:49:51.574, 7
10, 13.01, 0.00, 18.92, 15.93, 0.000, 0.000, 0.000, 09:49:51.575, 7
11, 15.98, 0.00, 22.10, 19.36, 0.000, 0.000, 0.000, 09:49:51.575, 7
12, 14.08, 0.00, 16.02, 16.75, 0.000, 0.000, 0.000, 09:49:51.575, 7
13, 12.46, 0.00, 14.45, 12.52, 0.000, 0.000, 0.000, 09:49:51.590, 7
14, 16.98, 0.00, 17.80, 18.74, 0.000, 0.000, 0.000, 09:49:51.590, 7
15, 16.79, 0.00, 18.47, 21.53, 0.000, 0.000, 0.000, 09:49:51.605, 7
16, 13.55, 0.00, 12.33, 10.81, 0.000, 0.000, 0.000, 09:49:51.605, 7
17, 16.13, 0.00, 13.25, 10.71, 0.000, 0.000, 0.000, 09:49:51.606, 7
18, 16.47, 0.00, 20.15, 14.79, 0.000, 0.000, 0.000, 09:49:51.607, 7
19, 21.20, 0.00, 19.93, 21.38, 0.000, 0.000, 0.000, 09:49:51.620, 7
20, 8.19, 0.00, 14.50, 12.92, 0.000, 0.000, 0.000, 09:49:51.620, 7
21, 11.91, 0.00, 13.76, 13.04, 0.000, 0.000, 0.000, 09:49:51.634, 7
22, 14.10, 0.00, 19.97, 20.12, 0.000, 0.000, 0.000, 09:49:51.635, 7
23, 13.12, 0.00, 22.60, 18.95, 0.000, 0.000, 0.000, 09:49:51.636, 7
24, 13.76, 0.00, 16.31, 11.56, 0.000, 0.000, 0.000, 09:49:51.636, 7
25, 12.19, 0.00, 15.63, 12.72, 0.000, 0.000, 0.000, 09:49:51.650, 7
26, 17.06, 0.00, 22.45, 19.12, 0.000, 0.000, 0.000, 09:49:51.650, 7
27, 18.78, 0.00, 21.70, 20.92, 0.000, 0.000, 0.000, 09:49:51.664, 7
28, 15.98, 0.00, 14.54, 17.16, 0.000, 0.000, 0.000, 09:49:51.665, 7
29, 12.78, 0.00, 13.19, 14.03, 0.000, 0.000, 0.000, 09:49:51.665, 7
30, 19.06, 0.00, 25.19, 18.03, 0.000, 0.000, 0.000, 09:49:51.665, 7
31, 18.87, 0.00, 21.92, 21.90, 0.000, 0.000, 0.000, 09:49:51.679, 7
32, 11.73, 0.00, 14.19, 14.26, 0.000, 0.000, 0.000, 09:49:51.680, 7
33, 12.16, 0.00, 12.26, 11.67, 0.000, 0.000, 0.000, 09:49:51.694, 7
34, 14.17, 0.00, 14.13, 18.22, 0.000, 0.000, 0.000, 09:49:51.695, 7
35, 13.36, 0.00, 19.77, 18.38, 0.000, 0.000, 0.000, 09:49:51.695, 7
36, 15.02, 0.00, 15.50, 11.42, 0.000, 0.000, 0.000, 09:49:51.695, 7
37, 13.35, 0.00, 9.59, 13.30, 0.000, 0.000, 0.000, 09:49:51.709, 7
38, 14.39, 0.00, 20.43, 17.79, 0.000, 0.000, 0.000, 09:49:51.709, 7
39, 21.45, 0.00, 26.51, 20.52, 0.000, 0.000, 0.000, 09:49:51.725, 7
40, 14.38, 0.00, 16.23, 9.58, 0.000, 0.000, 0.000, 09:49:51.725, 7
41, 11.42, 0.00, 13.10, 8.42, 0.000, 0.000, 0.000, 09:49:51.726, 7
42, 18.25, 0.00, 17.18, 21.72, 0.000, 0.000, 0.000, 09:49:51.726, 7
43, 16.70, 0.00, 21.61, 21.00, 0.000, 0.000, 0.000, 09:49:51.739, 7
44, 12.67, 0.00, 16.26, 12.43, 0.000, 0.000, 0.000, 09:49:51.739, 7
45, 9.07, 0.00, 15.49, 12.57, 0.000, 0.000, 0.000, 09:49:51.754, 7
46, 17.82, 0.00, 17.08, 15.04, 0.000, 0.000, 0.000, 09:49:51.754, 7
47, 18.06, 0.00, 20.10, 21.55, 0.000, 0.000, 0.000, 09:49:51.755, 7
48, 10.83, 0.00, 11.65, 13.83, 0.000, 0.000, 0.000, 09:49:51.755, 7
49, 11.06, 0.00, 13.78, 11.96, 0.000, 0.000, 0.000, 09:49:51.769, 7
50, 18.10, 0.00, 18.65, 18.56, 0.000, 0.000, 0.000, 09:49:51.769, 7
51, 15.13, 0.00, 19.02, 20.20, 0.000, 0.000, 0.000, 09:49:51.784, 7
52, 13.21, 0.00, 14.66, 10.74, 0.000, 0.000, 0.000, 09:49:51.784, 7
53, 14.19, 0.00, 13.31, 16.83, 0.000, 0.000, 0.000, 09:49:51.785, 7
54, 18.05, 0.00, 19.39, 21.66, 0.000, 0.000, 0.000, 09:49:51.786, 7
55, 15.69, 0.00, 21.46, 22.65, 0.000, 0.000, 0.000, 09:49:51.799, 7
56, 13.14, 0.00, 14.59, 15.28, 0.000, 0.000, 0.000, 09:49:51.799, 7
57, 13.36, 0.00, 13.54, 13.83, 0.000, 0.000, 0.000, 09:49:51.814, 7
58, 14.82, 0.00, 22.73, 20.00, 0.000, 0.000, 0.000, 09:49:51.815, 7
59, 13.21, 0.00, 22.45, 19.88, 0.000, 0.000, 0.000, 09:49:51.815, 7
60, 12.64, 0.00, 12.18, 14.38, 0.000, 0.000, 0.000, 09:49:51.816, 7
61, 10.42, 0.00, 13.62, 11.68, 0.000, 0.000, 0.000, 09:49:51.830, 7
62, 16.93, 0.00, 18.05, 13.62, 0.000, 0.000, 0.000, 09:49:51.830, 7
63, 16.58, 0.00, 21.35, 22.60, 0.000, 0.000, 0.000, 09:49:51.845, 7
64, 15.31, 0.00, 12.70, 12.02, 0.000, 0.000, 0.000, 09:49:51.845, 7
65, 12.50, 0.00, 15.49, 12.54, 0.000, 0.000, 0.000, 09:49:51.846, 7
66, 19.47, 0.00, 20.47, 19.09, 0.000, 0.000, 0.000, 09:49:51.846, 7
67, 17.74, 0.00, 20.20, 20.58, 0.000, 0.000, 0.000, 09:49:51.860, 7
68, 11.44, 0.00, 17.28, 16.19, 0.000, 0.000, 0.000, 09:49:51.860, 7
69, 10.95, 0.00, 13.05, 10.87, 0.000, 0.000, 0.000, 09:49:51.875, 7
70, 16.39, 0.00, 19.65, 19.37, 0.000, 0.000, 0.000, 09:49:51.875, 7
71, 20.46, 0.00, 21.92, 16.25, 0.000, 0.000, 0.000, 09:49:51.875, 7
72, 13.56, 0.00, 15.51, 10.49, 0.000, 0.000, 0.000, 09:49:51.876, 7
73, 9.04, 0.00, 13.26, 12.55, 0.000, 0.000, 0.000, 09:49:51.889, 7
74, 16.31, 0.00, 14.96, 19.02, 0.000, 0.000, 0.000, 09:49:51.890, 7
75, 22.23, 0.00, 22.24, 21.83, 0.000, 0.000, 0.000, 09:49:51.904, 7
76, 11.06, 0.00, 12.42, 13.35, 0.000, 0.000, 0.000, 09:49:51.905, 7
77, 11.62, 0.00, 13.15, 14.75, 0.000, 0.000, 0.000, 09:49:51.905, 7
78, 14.92, 0.00, 20.05, 18.65, 0.000, 0.000, 0.000, 09:49:51.905, 7
79, 16.74, 0.00, 19.91, 19.58, 0.000, 0.000, 0.000, 09:49:51.920, 7
80, 12.72, 0.00, 14.13, 16.94, 0.000, 0.000, 0.000, 09:49:51.920, 7
81, 11.64, 0.00, 12.61, 10.94, 0.000, 0.000, 0.000, 09:49:51.934, 7
82, 15.95, 0.00, 17.69, 20.81, 0.000, 0.000, 0.000, 09:49:51.935, 7
83, 14.53, 0.00, 19.98, 16.34, 0.000, 0.000, 0.000, 09:49:51.936, 7
84, 13.40, 0.00, 16.98, 11.77, 0.000, 0.000, 0.000, 09:49:51.936, 7
85, 11.74, 0.00, 15.92, 9.82, 0.000, 0.000, 0.000, 09:49:51.950, 7
86, 16.81, 0.00, 19.29, 20.96, 0.000, 0.000, 0.000, 09:49:51.950, 7
87, 15.20, 0.00, 22.45, 17.05, 0.000, 0.000, 0.000, 09:49:51.964, 7
88, 11.56, 0.00, 12.34, 12.58, 0.000, 0.000, 0.000, 09:49:51.965, 7
89, 12.67, 0.00, 13.53, 13.58, 0.000, 0.000, 0.000, 09:49:51.965, 7
90, 14.21, 0.00, 18.98, 16.92, 0.000, 0.000, 0.000, 09:49:51.965, 7
91, 18.07, 0.00, 22.69, 20.00, 0.000, 0.000, 0.000, 09:49:51.979, 7
92, 11.66, 0.00, 12.09, 12.25, 0.000, 0.000, 0.000, 09:49:51.980, 7
93, 13.42, 0.00, 12.16, 9.67, 0.000, 0.000, 0.000, 09:49:51.994, 7
94, 17.92, 0.00, 19.77, 21.86, 0.000, 0.000, 0.000, 09:49:51.995, 7
95, 16.50, 0.00, 21.96, 19.32, 0.000, 0.000, 0.000, 09:49:51.995, 7
96, 14.23, 0.00, 14.04, 17.26, 0.000, 0.000, 0.000, 09:49:51.996, 7
97, 10.71, 0.00, 14.74, 15.24, 0.000, 0.000, 0.000, 09:49:52.009, 7
98, 18.75, 0.00, 20.29, 16.64, 0.000, 0.000, 0.000, 09:49:52.009, 7
99, 17.74, 0.00, 20.44, 21.89, 0.000, 0.000, 0.000, 09:49:52.025, 7
100, 14.88, 0.00, 14.96, 12.71, 0.000, 0.000, 0.000, 09:49:52.025, 7
101, 13.65, 0.00, 14.18, 12.20, 0.000, 0.000, 0.000, 09:49:52.026, 7
102, 18.38, 0.00, 19.76, 17.89, 0.000, 0.000, 0.000, 09:49:52.026, 7
103, 17.16, 0.00, 21.04, 20.04, 0.000, 0.000, 0.000, 09:49:52.039, 7
104, 12.49, 0.00, 14.41, 13.52, 0.000, 0.000, 0.000, 09:49:52.040, 7
105, 11.87, 0.00, 13.15, 9.36, 0.000, 0.000, 0.000, 09:49:52.055, 7
106, 15.32, 0.00, 19.52, 18.73, 0.000, 0.000, 0.000, 09:49:52.055, 7
107, 16.52, 0.00, 18.19, 17.85, 0.000, 0.000, 0.000, 09:49:52.056, 7
108, 13.93, 0.00, 14.91, 14.09, 0.000, 0.000, 0.000, 09:49:52.056, 7
109, 11.17, 0.00, 8.73, 9.81, 0.000, 0.000, 0.000, 09:49:52.070, 7
110, 16.72, 0.00, 20.01, 19.55, 0.000, 0.000, 0.000, 09:49:52.070, 7
111, 18.61, 0.00, 24.30, 17.17, 0.000, 0.000, 0.000, 09:49:52.084, 7
112, 11.92, 0.00, 15.14, 16.09, 0.000, 0.000, 0.000, 09:49:52.085, 7
113, 12.68, 0.00, 17.36, 16.73, 0.000, 0.000, 0.000, 09:49:52.087, 7
114, 13.47, 0.00, 18.84, 17.72, 0.000, 0.000, 0.000, 09:49:52.087, 7
115, 18.85, 0.00, 21.19, 18.78, 0.000, 0.000, 0.000, 09:49:52.106, 7
116, 12.56, 0.00, 18.39, 15.07, 0.000, 0.000, 0.000, 09:49:52.106, 7
117, 12.63, 0.00, 12.80, 13.89, 0.000, 0.000, 0.000, 09:49:52.114, 7
118, 16.81, 0.00, 18.20, 18.09, 0.000, 0.000, 0.000, 09:49:52.115, 7
119, 17.41, 0.00, 21.53, 19.93, 0.000, 0.000, 0.000, 09:49:52.115, 7
120, 16.22, 0.00, 15.83, 14.25, 0.000, 0.000, 0.000, 09:49:52.116, 7
121, 11.65, 0.00, 15.97, 11.26, 0.000, 0.000, 0.000, 09:49:52.129, 7
122, 14.17, 0.00, 17.57, 20.33, 0.000, 0.000, 0.000, 09:49:52.130, 7
123, 12.04, 0.00, 20.39, 23.87, 0.000, 0.000, 0.000, 09:49:52.144, 7
124, 15.74, 0.00, 14.09, 9.99, 0.000, 0.000, 0.000, 09:49:52.144, 7
125, 13.69, 0.00, 13.02, 9.46, 0.000, 0.000, 0.000, 09:49:52.145, 7
126, 12.89, 0.00, 14.57, 18.16, 0.000, 0.000, 0.000, 09:49:52.146, 7
127, 16.59, 0.00, 19.67, 21.94, 0.000, 0.000, 0.000, 09:49:52.159, 7
128, 15.67, 0.00, 17.69, 10.06, 0.000, 0.000, 0.000, 09:49:52.160, 7
129, 12.46, 0.00, 14.33, 15.24, 0.000, 0.000, 0.000, 09:49:52.176, 7
130, 15.05, 0.00, 19.75, 15.38, 0.000, 0.000, 0.000, 09:49:52.176, 7
131, 22.30, 0.00, 24.20, 22.76, 0.000, 0.000, 0.000, 09:49:52.177, 7
132, 12.37, 0.00, 12.19, 14.44, 0.000, 0.000, 0.000, 09:49:52.177, 7
133, 10.40, 0.00, 12.81, 12.22, 0.000, 0.000, 0.000, 09:49:52.190, 7
134, 18.53, 0.00, 24.28, 17.31, 0.000, 0.000, 0.000, 09:49:52.191, 7
135, 21.61, 0.00, 24.65, 17.57, 0.000, 0.000, 0.000, 09:49:52.206, 7
136, 12.50, 0.00, 11.56, 16.63, 0.000, 0.000, 0.000, 09:49:52.206, 7
137, 12.61, 0.00, 11.91, 12.81, 0.000, 0.000, 0.000, 09:49:52.207, 7
138, 15.76, 0.00, 18.04, 20.87, 0.000, 0.000, 0.000, 09:49:52.207, 7
139, 16.16, 0.00, 17.02, 18.07, 0.000, 0.000, 0.000, 09:49:52.221, 7
140, 12.10, 0.00, 15.98, 15.77, 0.000, 0.000, 0.000, 09:49:52.221, 7
141, 13.81, 0.00, 13.60, 15.66, 0.000, 0.000, 0.000, 09:49:52.235, 7
142, 17.13, 0.00, 21.17, 18.08, 0.000, 0.000, 0.000, 09:49:52.235, 7
143, 15.67, 0.00, 22.48, 20.80, 0.000, 0.000, 0.000, 09:49:52.237, 7
144, 13.00, 0.00, 15.46, 12.37, 0.000, 0.000, 0.000, 09:49:52.237, 7
145, 10.66, 0.00, 16.31, 11.01, 0.000, 0.000, 0.000, 09:49:52.250, 7
146, 16.28, 0.00, 21.53, 18.86, 0.000, 0.000, 0.000, 09:49:52.250, 7
147, 19.79, 0.00, 17.29, 21.83, 0.000, 0.000, 0.000, 09:49:52.265, 7
148, 14.20, 0.00, 13.58, 14.61, 0.000, 0.000, 0.000, 09:49:52.266, 7
149, 11.35, 0.00, 13.42, 13.96, 0.000, 0.000, 0.000, 09:49:52.266, 7
150, 14.51, 0.00, 20.29, 19.93, 0.000, 0.000, 0.000, 09:49:52.267, 7
151, 15.54, 0.00, 20.76, 18.85, 0.000, 0.000, 0.000, 09:49:52.280, 7
152, 12.26, 0.00, 14.53, 15.10, 0.000, 0.000, 0.000, 09:49:52.280, 7
153, 11.09, 0.00, 11.08, 10.30, 0.000, 0.000, 0.000, 09:49:52.295, 7
154, 14.95, 0.00, 20.78, 19.52, 0.000, 0.000, 0.000, 09:49:52.295, 7
155, 18.96, 0.00, 19.84, 19.30, 0.000, 0.000, 0.000, 09:49:52.296, 7
156, 10.09, 0.00, 13.27, 10.26, 0.000, 0.000, 0.000, 09:49:52.297, 7
157, 10.80, 0.00, 11.22, 11.37, 0.000, 0.000, 0.000, 09:49:52.310, 7
158, 14.34, 0.00, 18.87, 19.21, 0.000, 0.000, 0.000, 09:49:52.311, 7
159, 17.04, 0.00, 17.24, 17.17, 0.000, 0.000, 0.000, 09:49:52.325, 7
160, 12.16, 0.00, 15.34, 14.65, 0.000, 0.000, 0.000, 09:49:52.325, 7
161, 9.61, 0.00, 12.01, 6.54, 0.000, 0.000, 0.000, 09:49:52.327, 7
162, 13.71, 0.00, 21.76, 18.41, 0.000, 0.000, 0.000, 09:49:52.327, 7
163, 16.79, 0.00, 22.76, 20.00, 0.000, 0.000, 0.000, 09:49:52.340, 7
164, 11.28, 0.00, 17.14, 13.21, 0.000, 0.000, 0.000, 09:49:52.340, 7
165, 14.12, 0.00, 16.81, 10.38, 0.000, 0.000, 0.000, 09:49:52.355, 7
166, 18.66, 0.00, 20.92, 20.91, 0.000, 0.000, 0.000, 09:49:52.356, 7
167, 20.25, 0.00, 19.83, 21.38, 0.000, 0.000, 0.000, 09:49:52.357, 7
168, 14.08, 0.00, 16.16, 17.79, 0.000, 0.000, 0.000, 09:49:52.357, 7
169, 9.59, 0.00, 13.80, 12.28, 0.000, 0.000, 0.000, 09:49:52.370, 7
170, 16.05, 0.00, 20.40, 18.74, 0.000, 0.000, 0.000, 09:49:52.370, 7
171, 18.73, 0.00, 20.93, 20.61, 0.000, 0.000, 0.000, 09:49:52.385, 7
172, 17.29, 0.00, 15.24, 17.22, 0.000, 0.000, 0.000, 09:49:52.385, 7
173, 12.92, 0.00, 14.08, 14.01, 0.000, 0.000, 0.000, 09:49:52.387, 7
174, 18.48, 0.00, 20.93, 19.48, 0.000, 0.000, 0.000, 09:49:52.387, 7
175, 17.21, 0.00, 20.60, 16.39, 0.000, 0.000, 0.000, 09:49:52.400, 7
176, 16.82, 0.00, 15.43, 13.37, 0.000, 0.000, 0.000, 09:49:52.400, 7
177, 10.94, 0.00, 14.65, 11.57, 0.000, 0.000, 0.000, 09:49:52.415, 7
178, 16.95, 0.00, 19.97, 16.98, 0.000, 0.000, 0.000, 09:49:52.415, 7
179, 12.54, 0.00, 21.37, 24.58, 0.000, 0.000, 0.000, 09:49:52.416, 7
180, 14.98, 0.00, 10.69, 15.05, 0.000, 0.000, 0.000, 09:49:52.416, 7
181, 12.44, 0.00, 12.38, 7.60, 0.000, 0.000, 0.000, 09:49:52.436, 7
182, 15.75, 0.00, 21.18, 14.11, 0.000, 0.000, 0.000, 09:49:52.437, 7
183, 14.57, 0.00, 19.81, 19.99, 0.000, 0.000, 0.000, 09:49:52.445, 7
184, 11.51, 0.00, 13.47, 12.43, 0.000, 0.000, 0.000, 09:49:52.445, 7
185, 10.26, 0.00, 11.37, 11.23, 0.000, 0.000, 0.000, 09:49:52.446, 7
186, 13.83, 0.00, 18.60, 13.64, 0.000, 0.000, 0.000, 09:49:52.446, 7
187, 20.81, 0.00, 20.91, 20.48, 0.000, 0.000, 0.000, 09:49:52.460, 7
188, 9.72, 0.00, 13.80, 8.51, 0.000, 0.000, 0.000, 09:49:52.460, 7
189, 7.26, 0.00, 12.38, 14.09, 0.000, 0.000, 0.000, 09:49:52.476, 7
190, 16.15, 0.00, 21.44, 21.63, 0.000, 0.000, 0.000, 09:49:52.476, 7
191, 20.67, 0.00, 22.66, 25.07, 0.000, 0.000, 0.000, 09:49:52.477, 7
192, 13.50, 0.00, 15.60, 16.62, 0.000, 0.000, 0.000, 09:49:52.477, 7
193, 16.12, 0.00, 16.24, 13.44, 0.000, 0.000, 0.000, 09:49:52.490, 7
194, 18.66, 0.00, 16.02, 17.84, 0.000, 0.000, 0.000, 09:49:52.490, 7
195, 14.51, 0.00, 20.49, 21.64, 0.000, 0.000, 0.000, 09:49:52.505, 7
196, 10.30, 0.00, 19.50, 16.20, 0.000, 0.000, 0.000, 09:49:52.505, 7
197, 9.57, 0.00, 9.44, 8.57, 0.000, 0.000, 0.000, 09:49:52.506, 7
198, 14.48, 0.00, 17.94, 15.91, 0.000, 0.000, 0.000, 09:49:52.506, 7
199, 19.35, 0.00, 21.25, 20.18, 0.000, 0.000, 0.000, 09:49:52.520, 7
200, 17.81, 0.00, 16.93, 14.16, 0.000, 0.000, 0.000, 09:49:52.520, 7
0, 14.03, 0.00, 15.67, 12.71, 0.000, 0.000, 0.000, 09:49:52.520, 7
1, 18.16, 0.00, 16.23, 16.34, 0.000, 0.000, 0.000, 09:49:52.534, 7
2, 15.88, 0.00, 21.20, 19.51, 0.000, 0.000, 0.000, 09:49:52.534, 7
3, 13.08, 0.00, 13.82, 11.64, 0.000, 0.000, 0.000, 09:49:52.549, 7
4, 11.92, 0.00, 9.40, 15.06, 0.000, 0.000, 0.000, 09:49:52.549, 7
5, 15.64, 0.00, 19.14, 21.87, 0.000, 0.000, 0.000, 09:49:52.550, 7
6, 15.54, 0.00, 17.29, 19.87, 0.000, 0.000, 0.000, 09:49:52.550, 7
7, 15.93, 0.00, 11.93, 12.46, 0.000, 0.000, 0.000, 09:49:52.565, 7
8, 13.20, 0.00, 14.22, 12.06, 0.000, 0.000, 0.000, 09:49:52.565, 7
9, 16.01, 0.00, 21.14, 18.45, 0.000, 0.000, 0.000, 09:49:52.607, 7
10, 16.92, 0.00, 27.24, 20.33, 0.000, 0.000, 0.000, 09:49:52.607, 7
11, 12.61, 0.00, 17.60, 10.62, 0.000, 0.000, 0.000, 09:49:52.608, 7
12, 11.52, 0.00, 12.77, 10.36, 0.000, 0.000, 0.000, 09:49:52.608, 7
13, 14.34, 0.00, 26.24, 19.57, 0.000, 0.000, 0.000, 09:49:52.609, 7
14, 19.09, 0.00, 21.90, 16.88, 0.000, 0.000, 0.000, 09:49:52.609, 7
15, 13.65, 0.00, 10.91, 13.77, 0.000, 0.000, 0.000, 09:49:52.609, 7
16, 8.44, 0.00, 10.35, 9.85, 0.000, 0.000, 0.000, 09:49:52.609, 7
17, 17.39, 0.00, 16.03, 19.48, 0.000, 0.000, 0.000, 09:49:52.610, 7
18, 18.58, 0.00, 22.89, 21.71, 0.000, 0.000, 0.000, 09:49:52.610, 7
19, 17.84, 0.00, 21.28, 18.76, 0.000, 0.000, 0.000, 09:49:52.625, 7
20, 14.20, 0.00, 9.81, 10.83, 0.000, 0.000, 0.000, 09:49:52.625, 7
21, 12.44, 0.00, 15.99, 19.55, 0.000, 0.000, 0.000, 09:49:52.641, 7
22, 17.41, 0.00, 21.19, 23.86, 0.000, 0.000, 0.000, 09:49:52.641, 7
23, 11.88, 0.00, 11.61, 12.93, 0.000, 0.000, 0.000, 09:49:52.642, 7
24, 12.07, 0.00, 13.81, 12.03, 0.000, 0.000, 0.000, 09:49:52.642, 7
25, 17.85, 0.00, 23.65, 17.79, 0.000, 0.000, 0.000, 09:49:52.654, 7
26, 15.07, 0.00, 23.23, 19.12, 0.000, 0.000, 0.000, 09:49:52.655, 7
27, 12.45, 0.00, 16.66, 15.03, 0.000, 0.000, 0.000, 09:49:52.670, 7
28, 12.03, 0.00, 12.03, 12.06, 0.000, 0.000, 0.000, 09:49:52.671, 7
29, 17.57, 0.00, 16.78, 15.79, 0.000, 0.000, 0.000, 09:49:52.671, 7
30, 16.83, 0.00, 25.75, 21.18, 0.000, 0.000, 0.000, 09:49:52.672, 7
31, 13.12, 0.00, 16.52, 11.81, 0.000, 0.000, 0.000, 09:49:52.684, 7
32, 15.76, 0.00, 11.96, 13.57, 0.000, 0.000, 0.000, 09:49:52.685, 7
33, 14.89, 0.00, 19.91, 17.14, 0.000, 0.000, 0.000, 09:49:52.709, 7
34, 16.90, 0.00, 25.74, 21.07, 0.000, 0.000, 0.000, 09:49:52.709, 7
35, 17.70, 0.00, 15.70, 11.18, 0.000, 0.000, 0.000, 09:49:52.709, 7
36, 11.41, 0.00, 12.94, 13.16, 0.000, 0.000, 0.000, 09:49:52.710, 7
37, 14.18, 0.00, 15.46, 21.76, 0.000, 0.000, 0.000, 09:49:52.714, 7
38, 20.40, 0.00, 18.05, 17.78, 0.000, 0.000, 0.000, 09:49:52.715, 7
39, 17.47, 0.00, 13.62, 18.22, 0.000, 0.000, 0.000, 09:49:52.744, 7
40, 14.44, 0.00, 11.12, 8.64, 0.000, 0.000, 0.000, 09:49:52.744, 7
41, 16.78, 0.00, 21.40, 16.87, 0.000, 0.000, 0.000, 09:49:52.745, 7
42, 11.61, 0.00, 18.49, 19.83, 0.000, 0.000, 0.000, 09:49:52.745, 7
43, 13.65, 0.00, 16.70, 17.49, 0.000, 0.000, 0.000, 09:49:52.745, 7
44, 14.32, 0.00, 13.09, 12.50, 0.000, 0.000, 0.000, 09:49:52.745, 7
45, 13.29, 0.00, 18.57, 15.22, 0.000, 0.000, 0.000, 09:49:52.746, 7
46, 19.81, 0.00, 19.24, 21.84, 0.000, 0.000, 0.000, 09:49:52.746, 7
47, 12.75, 0.00, 19.83, 14.80, 0.000, 0.000, 0.000, 09:49:52.759, 7
48, 12.52, 0.00, 10.61, 14.10, 0.000, 0.000, 0.000, 09:49:52.759, 7
49, 14.27, 0.00, 22.28, 19.24, 0.000, 0.000, 0.000, 09:49:52.774, 7
50, 16.61, 0.00, 18.13, 17.43, 0.000, 0.000, 0.000, 09:49:52.774, 7
51, 8.06, 0.00, 13.69, 12.11, 0.000, 0.000, 0.000, 09:49:52.790, 7
52, 13.00, 0.00, 9.82, 11.73, 0.000, 0.000, 0.000, 09:49:52.790, 7
53, 16.53, 0.00, 20.18, 18.92, 0.000, 0.000, 0.000, 09:49:52.791, 7
54, 19.52, 0.00, 21.45, 20.60, 0.000, 0.000, 0.000, 09:49:52.791, 7
55, 8.44, 0.00, 11.33, 13.29, 0.000, 0.000, 0.000, 09:49:52.804, 7
56, 12.77, 0.00, 10.52, 11.66, 0.000, 0.000, 0.000, 09:49:52.804, 7
57, 17.44, 0.00, 23.92, 22.61, 0.000, 0.000, 0.000, 09:49:52.821, 7
58, 15.91, 0.00, 21.80, 22.26, 0.000, 0.000, 0.000, 09:49:52.821, 7
59, 13.11, 0.00, 15.37, 12.06, 0.000, 0.000, 0.000, 09:49:52.823, 7
60, 11.00, 0.00, 13.80, 9.27, 0.000, 0.000, 0.000, 09:49:52.824, 7
61, 12.15, 0.00, 18.99, 21.13, 0.000, 0.000, 0.000, 09:49:52.834, 7
62, 15.51, 0.00, 21.49, 19.02, 0.000, 0.000, 0.000, 09:49:52.834, 7
63, 16.77, 0.00, 17.53, 17.36, 0.000, 0.000, 0.000, 09:49:52.849, 7
64, 12.30, 0.00, 11.35, 12.28, 0.000, 0.000, 0.000, 09:49:52.849, 7
65, 15.92, 0.00, 19.70, 15.84, 0.000, 0.000, 0.000, 09:49:52.849, 7
66, 17.10, 0.00, 24.43, 22.06, 0.000, 0.000, 0.000, 09:49:52.850, 7
67, 12.23, 0.00, 15.47, 16.39, 0.000, 0.000, 0.000, 09:49:52.871, 7
68, 10.46, 0.00, 13.52, 11.31, 0.000, 0.000, 0.000, 09:49:52.871, 7
69, 13.59, 0.00, 18.99, 19.82, 0.000, 0.000, 0.000, 09:49:52.879, 7
70, 21.51, 0.00, 22.86, 22.48, 0.000, 0.000, 0.000, 09:49:52.879, 7
71, 16.10, 0.00, 9.99, 12.81, 0.000, 0.000, 0.000, 09:49:52.880, 7
72, 14.22, 0.00, 13.81, 13.61, 0.000, 0.000, 0.000, 09:49:52.880, 7
73, 14.45, 0.00, 18.20, 17.90, 0.000, 0.000, 0.000, 09:49:52.894, 7
74, 18.82, 0.00, 15.08, 16.30, 0.000, 0.000, 0.000, 09:49:52.894, 7
75, 13.16, 0.00, 16.42, 13.53, 0.000, 0.000, 0.000, 09:49:52.909, 7
76, 13.76, 0.00, 15.37, 12.94, 0.000, 0.000, 0.000, 09:49:52.909, 7
77, 15.14, 0.00, 21.24, 16.75, 0.000, 0.000, 0.000, 09:49:52.910, 7
78, 17.25, 0.00, 22.65, 19.74, 0.000, 0.000, 0.000, 09:49:52.910, 7
79, 13.14, 0.00, 17.28, 12.57, 0.000, 0.000, 0.000, 09:49:52.924, 7
80, 13.49, 0.00, 17.23, 14.45, 0.000, 0.000, 0.000, 09:49:52.924, 7
81, 18.66, 0.00, 16.20, 16.75, 0.000, 0.000, 0.000, 09:49:52.940, 7
82, 17.93, 0.00, 21.11, 22.96, 0.000, 0.000, 0.000, 09:49:52.940, 7
83, 13.48, 0.00, 17.14, 12.54, 0.000, 0.000, 0.000, 09:49:52.941, 7
84, 12.59, 0.00, 14.18, 11.63, 0.000, 0.000, 0.000, 09:49:52.941, 7
85, 16.71, 0.00, 22.75, 17.04, 0.000, 0.000, 0.000, 09:49:52.954, 7
86, 15.42, 0.00, 21.77, 15.71, 0.000, 0.000, 0.000, 09:49:52.955, 7
87, 15.30, 0.00, 13.00, 17.78, 0.000, 0.000, 0.000, 09:49:52.970, 7
88, 7.90, 0.00, 13.43, 10.69, 0.000, 0.000, 0.000, 09:49:52.971, 7
89, 10.96, 0.00, 20.66, 20.34, 0.000, 0.000, 0.000, 09:49:52.972, 7
90, 16.75, 0.00, 17.17, 16.13, 0.000, 0.000, 0.000, 09:49:52.972, 7
91, 7.57, 0.00, 13.70, 13.29, 0.000, 0.000, 0.000, 09:49:52.985, 7
92, 12.33, 0.00, 14.44, 12.61, 0.000, 0.000, 0.000, 09:49:52.985, 7
93, 16.51, 0.00, 20.31, 14.37, 0.000, 0.000, 0.000, 09:49:53.000, 7
94, 14.59, 0.00, 23.21, 22.08, 0.000, 0.000, 0.000, 09:49:53.000, 7
95, 10.49, 0.00, 14.30, 12.74, 0.000, 0.000, 0.000, 09:49:53.000, 7
96, 16.48, 0.00, 13.72, 12.48, 0.000, 0.000, 0.000, 09:49:53.001, 7
97, 20.06, 0.00, 18.60, 20.49, 0.000, 0.000, 0.000, 09:49:53.015, 7
98, 18.46, 0.00, 20.09, 21.32, 0.000, 0.000, 0.000, 09:49:53.015, 7
99, 15.37, 0.00, 13.78, 17.83, 0.000, 0.000, 0.000, 09:49:53.029, 7
100, 12.18, 0.00, 11.62, 12.00, 0.000, 0.000, 0.000, 09:49:53.030, 7
101, 17.50, 0.00, 19.90, 20.96, 0.000, 0.000, 0.000, 09:49:53.030, 7
102, 16.15, 0.00, 20.08, 17.83, 0.000, 0.000, 0.000, 09:49:53.031, 7
103, 12.66, 0.00, 16.35, 14.61, 0.000, 0.000, 0.000, 09:49:53.044, 7
104, 12.72, 0.00, 10.42, 9.07, 0.000, 0.000, 0.000, 09:49:53.045, 7
105, 17.02, 0.00, 16.49, 15.43, 0.000, 0.000, 0.000, 09:49:53.060, 7
106, 22.50, 0.00, 23.15, 20.92, 0.000, 0.000, 0.000, 09:49:53.060, 7
107, 10.66, 0.00, 15.67, 14.90, 0.000, 0.000, 0.000, 09:49:53.060, 7
108, 13.67, 0.00, 12.97, 13.14, 0.000, 0.000, 0.000, 09:49:53.060, 7
109, 11.80, 0.00, 19.30, 18.38, 0.000, 0.000, 0.000, 09:49:53.074, 7
110, 14.53, 0.00, 21.13, 21.85, 0.000, 0.000, 0.000, 09:49:53.075, 7
111, 13.56, 0.00, 13.80, 13.77, 0.000, 0.000, 0.000, 09:49:53.090, 7
112, 8.34, 0.00, 8.91, 9.79, 0.000, 0.000, 0.000, 09:49:53.090, 7
113, 14.82, 0.00, 18.98, 15.12, 0.000, 0.000, 0.000, 09:49:53.090, 7
114, 23.39, 0.00, 21.41, 20.28, 0.000, 0.000, 0.000, 09:49:53.091, 7
115, 16.19, 0.00, 20.30, 18.94, 0.000, 0.000, 0.000, 09:49:53.105, 7
116, 12.93, 0.00, 15.65, 10.59, 0.000, 0.000, 0.000, 09:49:53.105, 7
117, 15.77, 0.00, 20.63, 20.44, 0.000, 0.000, 0.000, 09:49:53.120, 7
118, 12.93, 0.00, 20.80, 19.06, 0.000, 0.000, 0.000, 09:49:53.121, 7
119, 11.79, 0.00, 15.47, 12.53, 0.000, 0.000, 0.000, 09:49:53.121, 7
120, 7.41, 0.00, 9.89, 10.32, 0.000, 0.000, 0.000, 09:49:53.121, 7
121, 14.15, 0.00, 18.26, 16.46, 0.000, 0.000, 0.000, 09:49:53.134, 7
122, 18.30, 0.00, 20.98, 20.25, 0.000, 0.000, 0.000, 09:49:53.135, 7
123, 12.24, 0.00, 16.03, 14.81, 0.000, 0.000, 0.000, 09:49:53.149, 7
124, 11.62, 0.00, 7.57, 13.46, 0.000, 0.000, 0.000, 09:49:53.150, 7
125, 16.14, 0.00, 16.99, 14.62, 0.000, 0.000, 0.000, 09:49:53.150, 7
126, 17.67, 0.00, 22.65, 22.14, 0.000, 0.000, 0.000, 09:49:53.150, 7
127, 14.22, 0.00, 15.38, 16.67, 0.000, 0.000, 0.000, 09:49:53.171, 7
128, 11.55, 0.00, 15.68, 12.07, 0.000, 0.000, 0.000, 09:49:53.171, 7
129, 17.66, 0.00, 19.33, 20.05, 0.000, 0.000, 0.000, 09:49:53.179, 7
130, 18.99, 0.00, 21.31, 21.42, 0.000, 0.000, 0.000, 09:49:53.180, 7
131, 12.90, 0.00, 13.54, 11.17, 0.000, 0.000, 0.000, 09:49:53.180, 7
132, 6.27, 0.00, 10.93, 11.10, 0.000, 0.000, 0.000, 09:49:53.180, 7
133, 19.01, 0.00, 21.73, 18.61, 0.000, 0.000, 0.000, 09:49:53.194, 7
134, 13.95, 0.00, 18.91, 13.97, 0.000, 0.000, 0.000, 09:49:53.194, 7
135, 15.15, 0.00, 16.92, 16.77, 0.000, 0.000, 0.000, 09:49:53.209, 7
136, 13.68, 0.00, 12.75, 11.68, 0.000, 0.000, 0.000, 09:49:53.209, 7
137, 19.03, 0.00, 20.38, 18.80, 0.000, 0.000, 0.000, 09:49:53.209, 7
138, 17.13, 0.00, 20.53, 21.60, 0.000, 0.000, 0.000, 09:49:53.209, 7
139, 13.39, 0.00, 14.29, 15.93, 0.000, 0.000, 0.000, 09:49:53.224, 7
140, 8.15, 0.00, 15.86, 12.41, 0.000, 0.000, 0.000, 09:49:53.224, 7
141, 16.67, 0.00, 19.62, 15.73, 0.000, 0.000, 0.000, 09:49:53.238, 7
142, 17.46, 0.00, 21.13, 19.00, 0.000, 0.000, 0.000, 09:49:53.239, 7
143, 15.71, 0.00, 14.95, 12.50, 0.000, 0.000, 0.000, 09:49:53.239, 7
144, 10.46, 0.00, 10.94, 12.98, 0.000, 0.000, 0.000, 09:49:53.239, 7
