%OpenBCI Raw EEG Data
%
%Sample Rate = 200.0 Hz
%First Column = SampleIndex
%Last Column = Timestamp 
%Other Columns = EEG data in microvolts followed by Accel Data (in G) interleaved with Aux Data
0, 9.61, 8.72, 20.21, 12.29, 0.000, 0.000, 0.000, 10:18:14.030, 
1, 14.32, 11.76, 21.67, 17.29, 0.000, 0.000, 0.000, 10:18:14.086, 
2, 14.71, 13.39, 16.14, 16.86, 0.000, 0.000, 0.000, 10:18:14.089, 
3, 12.67, 8.16, 11.85, 11.61, 0.000, 0.000, 0.000, 10:18:14.093, 
4, 15.64, 11.84, 17.48, 15.43, 0.000, 0.000, 0.000, 10:18:14.095, 
5, 16.21, 13.64, 22.55, 17.65, 0.000, 0.000, 0.000, 10:18:14.097, 
6, 12.84, 12.64, 15.96, 17.14, 0.000, 0.000, 0.000, 10:18:14.099, 
7, 13.84, 8.76, 15.05, 15.14, 0.000, 0.000, 0.000, 10:18:14.103, 
8, 11.54, 14.02, 14.42, 17.13, 0.000, 0.000, 0.000, 10:18:14.106, 
9, 18.63, 15.42, 16.32, 18.23, 0.000, 0.000, 0.000, 10:18:14.108, 
10, 13.32, 13.16, 14.36, 14.48, 0.000, 0.000, 0.000, 10:18:14.110, 
11, 9.86, 6.84, 15.26, 8.48, 0.000, 0.000, 0.000, 10:18:14.113, 
12, 14.44, 11.03, 18.27, 13.30, 0.000, 0.000, 0.000, 10:18:14.114, 
13, 17.96, 16.64, 18.69, 21.90, 0.000, 0.000, 0.000, 10:18:14.117, 
14, 12.04, 9.42, 17.74, 13.78, 0.000, 0.000, 0.000, 10:18:14.121, 
15, 11.74, 9.99, 14.04, 11.04, 0.000, 0.000, 0.000, 10:18:14.122, 
16, 12.39, 9.88, 19.50, 12.65, 0.000, 0.000, 0.000, 10:18:14.124, 
17, 15.98, 15.04, 19.91, 12.62, 0.000, 0.000, 0.000, 10:18:14.125, 
18, 11.93, 7.60, 16.21, 15.72, 0.000, 0.000, 0.000, 10:18:14.127, 
19, 9.91, 6.92, 10.20, 13.11, 0.000, 0.000, 0.000, 10:18:14.141, 
20, 14.58, 12.95, 17.99, 15.71, 0.000, 0.000, 0.000, 10:18:14.143, 
21, 13.86, 10.83, 16.61, 15.52, 0.000, 0.000, 0.000, 10:18:14.144, 
22, 12.53, 8.49, 16.78, 12.51, 0.000, 0.000, 0.000, 10:18:14.147, 
23, 9.78, 8.97, 9.04, 12.61, 0.000, 0.000, 0.000, 10:18:14.148, 
24, 8.10, 9.76, 13.87, 16.49, 0.000, 0.000, 0.000, 10:18:14.149, 
25, 19.03, 15.29, 20.89, 20.00, 0.000, 0.000, 0.000, 10:18:14.162, 
26, 12.80, 11.13, 17.67, 14.95, 0.000, 0.000, 0.000, 10:18:14.163, 
27, 9.83, 8.06, 12.90, 7.60, 0.000, 0.000, 0.000, 10:18:14.186, 
28, 13.56, 8.54, 16.37, 17.05, 0.000, 0.000, 0.000, 10:18:14.187, 
29, 16.09, 12.36, 20.67, 18.33, 0.000, 0.000, 0.000, 10:18:14.189, 
30, 12.48, 11.96, 16.11, 19.63, 0.000, 0.000, 0.000, 10:18:14.189, 
31, 14.22, 10.53, 14.10, 13.85, 0.000, 0.000, 0.000, 10:18:14.190, 
32, 14.91, 10.72, 15.49, 17.74, 0.000, 0.000, 0.000, 10:18:14.190, 
33, 16.19, 15.08, 23.47, 22.84, 0.000, 0.000, 0.000, 10:18:14.191, 
34, 15.80, 11.50, 21.73, 15.97, 0.000, 0.000, 0.000, 10:18:14.192, 
35, 10.71, 7.34, 9.21, 21.09, 0.000, 0.000, 0.000, 10:18:14.202, 
36, 17.34, 11.26, 16.25, 24.71, 0.000, 0.000, 0.000, 10:18:14.203, 
37, 14.26, 12.02, 16.94, 27.74, 0.000, 0.000, 0.000, 10:18:14.216, 
38, 13.66, 14.22, 20.07, 19.13, 0.000, 0.000, 0.000, 10:18:14.216, 
39, 10.64, 3.92, 14.37, 7.82, 0.000, 0.000, 0.000, 10:18:14.231, 
40, 16.81, 12.87, 18.30, 17.52, 0.000, 0.000, 0.000, 10:18:14.231, 
41, 19.65, 16.33, 21.40, 20.05, 0.000, 0.000, 0.000, 10:18:14.232, 
42, 12.85, 10.38, 14.42, 9.98, 0.000, 0.000, 0.000, 10:18:14.232, 
43, 10.41, 8.29, 13.04, 6.67, 0.000, 0.000, 0.000, 10:18:14.246, 
44, 13.60, 11.24, 13.23, 13.44, 0.000, 0.000, 0.000, 10:18:14.246, 
45, 12.12, 16.81, 21.11, 17.71, 0.000, 0.000, 0.000, 10:18:14.261, 
46, 12.61, 8.51, 13.84, 9.35, 0.000, 0.000, 0.000, 10:18:14.261, 
47, 12.84, 6.75, 12.67, 10.22, 0.000, 0.000, 0.000, 10:18:14.262, 
48, 9.36, 11.20, 18.03, 10.15, 0.000, 0.000, 0.000, 10:18:14.262, 
49, 12.05, 14.32, 16.71, 18.14, 0.000, 0.000, 0.000, 10:18:14.276, 
50, 14.90, 10.88, 18.67, 14.25, 0.000, 0.000, 0.000, 10:18:14.277, 
51, 10.34, 9.46, 11.48, 22.05, 0.000, 0.000, 0.000, 10:18:14.307, 
52, 11.18, 7.93, 12.67, 22.09, 0.000, 0.000, 0.000, 10:18:14.308, 
53, 14.09, 13.30, 22.38, 19.51, 0.000, 0.000, 0.000, 10:18:14.309, 
54, 13.51, 9.82, 17.55, 7.79, 0.000, 0.000, 0.000, 10:18:14.309, 
55, 10.94, 8.90, 14.68, 8.53, 0.000, 0.000, 0.000, 10:18:14.310, 
56, 15.12, 13.18, 14.15, 8.57, 0.000, 0.000, 0.000, 10:18:14.311, 
57, 17.11, 16.44, 16.51, 12.27, 0.000, 0.000, 0.000, 10:18:14.311, 
58, 13.49, 10.15, 14.26, 6.56, 0.000, 0.000, 0.000, 10:18:14.312, 
59, 7.12, 7.76, 15.34, 7.42, 0.000, 0.000, 0.000, 10:18:14.322, 
60, 14.27, 10.88, 16.58, 15.37, 0.000, 0.000, 0.000, 10:18:14.323, 
61, 16.29, 11.88, 16.89, 17.28, 0.000, 0.000, 0.000, 10:18:14.336, 
62, 17.08, 13.45, 18.56, 17.23, 0.000, 0.000, 0.000, 10:18:14.337, 
63, 11.95, 10.76, 12.65, 8.22, 0.000, 0.000, 0.000, 10:18:14.354, 
64, 11.25, 8.92, 13.43, 15.47, 0.000, 0.000, 0.000, 10:18:14.355, 
65, 14.90, 11.74, 18.65, 17.56, 0.000, 0.000, 0.000, 10:18:14.357, 
66, 11.87, 12.43, 12.09, 16.36, 0.000, 0.000, 0.000, 10:18:14.358, 
67, 11.29, 8.45, 12.13, 22.27, 0.000, 0.000, 0.000, 10:18:14.366, 
68, 13.12, 13.97, 18.28, 26.06, 0.000, 0.000, 0.000, 10:18:14.367, 
69, 15.92, 12.30, 17.47, 27.04, 0.000, 0.000, 0.000, 10:18:14.380, 
70, 15.26, 12.18, 19.31, 16.46, 0.000, 0.000, 0.000, 10:18:14.381, 
71, 14.23, 10.08, 12.02, 15.22, 0.000, 0.000, 0.000, 10:18:14.382, 
72, 15.22, 11.40, 17.95, 21.53, 0.000, 0.000, 0.000, 10:18:14.382, 
73, 15.24, 12.19, 19.84, 16.45, 0.000, 0.000, 0.000, 10:18:14.412, 
74, 11.68, 13.26, 15.85, 18.97, 0.000, 0.000, 0.000, 10:18:14.413, 
75, 10.32, 10.28, 12.79, 13.14, 0.000, 0.000, 0.000, 10:18:14.413, 
76, 16.78, 9.87, 19.54, 22.27, 0.000, 0.000, 0.000, 10:18:14.413, 
77, 15.51, 15.43, 16.30, 18.42, 0.000, 0.000, 0.000, 10:18:14.414, 
78, 15.08, 12.31, 19.01, 16.12, 0.000, 0.000, 0.000, 10:18:14.414, 
79, 7.26, 9.29, 12.18, 16.86, 0.000, 0.000, 0.000, 10:18:14.426, 
80, 12.23, 8.44, 19.22, 19.43, 0.000, 0.000, 0.000, 10:18:14.427, 
81, 18.27, 12.03, 20.95, 21.62, 0.000, 0.000, 0.000, 10:18:14.441, 
82, 13.70, 8.96, 13.93, 18.03, 0.000, 0.000, 0.000, 10:18:14.442, 
83, 12.86, 8.05, 10.82, 13.43, 0.000, 0.000, 0.000, 10:18:14.442, 
84, 14.68, 11.34, 15.34, 19.98, 0.000, 0.000, 0.000, 10:18:14.442, 
85, 18.14, 17.06, 16.43, 21.78, 0.000, 0.000, 0.000, 10:18:14.456, 
86, 14.90, 12.43, 18.20, 13.53, 0.000, 0.000, 0.000, 10:18:14.457, 
87, 10.01, 7.31, 15.82, 14.77, 0.000, 0.000, 0.000, 10:18:14.472, 
88, 10.28, 10.34, 19.11, 18.37, 0.000, 0.000, 0.000, 10:18:14.472, 
89, 17.38, 9.94, 21.16, 20.39, 0.000, 0.000, 0.000, 10:18:14.473, 
90, 17.11, 10.53, 15.57, 12.14, 0.000, 0.000, 0.000, 10:18:14.473, 
91, 13.35, 8.92, 8.58, 2.50, 0.000, 0.000, 0.000, 10:18:14.487, 
92, 13.11, 9.66, 16.70, 11.73, 0.000, 0.000, 0.000, 10:18:14.488, 
93, 13.14, 11.32, 20.93, 15.32, 0.000, 0.000, 0.000, 10:18:14.501, 
94, 13.98, 8.97, 16.42, 9.38, 0.000, 0.000, 0.000, 10:18:14.503, 
95, 10.86, 11.63, 17.36, 5.21, 0.000, 0.000, 0.000, 10:18:14.504, 
96, 11.46, 8.67, 15.14, 12.69, 0.000, 0.000, 0.000, 10:18:14.504, 
97, 15.86, 12.54, 18.90, 12.98, 0.000, 0.000, 0.000, 10:18:14.517, 
98, 13.65, 9.32, 13.53, 10.33, 0.000, 0.000, 0.000, 10:18:14.518, 
99, 7.82, 8.36, 15.94, 3.76, 0.000, 0.000, 0.000, 10:18:14.531, 
100, 14.45, 14.00, 17.24, 12.36, 0.000, 0.000, 0.000, 10:18:14.532, 
101, 15.50, 15.05, 18.07, 16.01, 0.000, 0.000, 0.000, 10:18:14.538, 
102, 10.39, 9.03, 15.73, 6.15, 0.000, 0.000, 0.000, 10:18:14.539, 
103, 10.10, 9.39, 8.91, 9.74, 0.000, 0.000, 0.000, 10:18:14.547, 
104, 18.12, 11.91, 16.08, 19.57, 0.000, 0.000, 0.000, 10:18:14.548, 
105, 14.31, 15.83, 20.51, 21.12, 0.000, 0.000, 0.000, 10:18:14.562, 
106, 12.56, 9.71, 18.13, 17.31, 0.000, 0.000, 0.000, 10:18:14.562, 
107, 10.65, 7.97, 14.59, 14.50, 0.000, 0.000, 0.000, 10:18:14.563, 
108, 10.94, 11.54, 18.07, 19.79, 0.000, 0.000, 0.000, 10:18:14.564, 
109, 14.48, 11.73, 19.11, 28.03, 0.000, 0.000, 0.000, 10:18:14.576, 
110, 15.25, 9.57, 17.24, 11.34, 0.000, 0.000, 0.000, 10:18:14.577, 
111, 13.53, 9.23, 18.11, 10.66, 0.000, 0.000, 0.000, 10:18:14.591, 
112, 18.30, 12.27, 18.15, 11.30, 0.000, 0.000, 0.000, 10:18:14.592, 
113, 16.66, 14.13, 17.43, 15.31, 0.000, 0.000, 0.000, 10:18:14.592, 
114, 13.07, 10.76, 17.95, 12.79, 0.000, 0.000, 0.000, 10:18:14.593, 
115, 13.13, 10.33, 16.64, 9.36, 0.000, 0.000, 0.000, 10:18:14.607, 
116, 10.74, 11.92, 14.16, 13.20, 0.000, 0.000, 0.000, 10:18:14.608, 
117, 12.75, 10.57, 15.52, 15.63, 0.000, 0.000, 0.000, 10:18:14.621, 
118, 11.62, 11.81, 19.95, 13.45, 0.000, 0.000, 0.000, 10:18:14.622, 
119, 13.65, 9.12, 15.29, 9.58, 0.000, 0.000, 0.000, 10:18:14.626, 
120, 15.12, 11.60, 15.07, 17.23, 0.000, 0.000, 0.000, 10:18:14.628, 
121, 16.27, 13.21, 22.30, 20.18, 0.000, 0.000, 0.000, 10:18:14.647, 
122, 12.70, 5.82, 15.59, 10.07, 0.000, 0.000, 0.000, 10:18:14.648, 
123, 12.75, 7.64, 12.92, 16.80, 0.000, 0.000, 0.000, 10:18:14.651, 
124, 12.32, 9.97, 14.88, 15.08, 0.000, 0.000, 0.000, 10:18:14.653, 
125, 17.36, 17.28, 21.46, 18.88, 0.000, 0.000, 0.000, 10:18:14.654, 
126, 16.62, 15.99, 16.09, 23.90, 0.000, 0.000, 0.000, 10:18:14.660, 
127, 12.80, 9.36, 15.03, 17.90, 0.000, 0.000, 0.000, 10:18:14.666, 
128, 16.57, 13.00, 16.09, 19.32, 0.000, 0.000, 0.000, 10:18:14.666, 
129, 15.98, 14.86, 20.61, 25.81, 0.000, 0.000, 0.000, 10:18:14.681, 
130, 15.45, 7.75, 18.65, 18.03, 0.000, 0.000, 0.000, 10:18:14.681, 
131, 9.60, 7.13, 8.28, 16.28, 0.000, 0.000, 0.000, 10:18:14.682, 
132, 13.24, 10.84, 17.28, 16.65, 0.000, 0.000, 0.000, 10:18:14.682, 
133, 12.95, 14.84, 17.00, 12.52, 0.000, 0.000, 0.000, 10:18:14.697, 
134, 13.37, 13.25, 18.48, 16.13, 0.000, 0.000, 0.000, 10:18:14.697, 
135, 9.37, 6.61, 12.61, 11.38, 0.000, 0.000, 0.000, 10:18:14.711, 
136, 10.50, 12.31, 17.62, 16.53, 0.000, 0.000, 0.000, 10:18:14.712, 
137, 15.53, 18.17, 16.61, 25.82, 0.000, 0.000, 0.000, 10:18:14.712, 
138, 15.22, 12.23, 15.21, 17.77, 0.000, 0.000, 0.000, 10:18:14.712, 
139, 7.77, 6.40, 11.79, 16.36, 0.000, 0.000, 0.000, 10:18:14.726, 
140, 14.35, 12.43, 15.61, 17.45, 0.000, 0.000, 0.000, 10:18:14.727, 
141, 13.26, 8.92, 18.86, 26.39, 0.000, 0.000, 0.000, 10:18:14.742, 
142, 10.50, 14.06, 17.07, 19.53, 0.000, 0.000, 0.000, 10:18:14.743, 
143, 11.56, 7.79, 13.94, 11.52, 0.000, 0.000, 0.000, 10:18:14.743, 
144, 14.36, 11.73, 16.78, 17.28, 0.000, 0.000, 0.000, 10:18:14.743, 
145, 13.74, 13.81, 21.06, 19.84, 0.000, 0.000, 0.000, 10:18:14.757, 
146, 15.92, 14.65, 17.15, 12.06, 0.000, 0.000, 0.000, 10:18:14.757, 
147, 10.70, 9.46, 12.39, 14.74, 0.000, 0.000, 0.000, 10:18:14.772, 
148, 12.68, 10.20, 19.54, 13.87, 0.000, 0.000, 0.000, 10:18:14.773, 
149, 14.74, 13.68, 22.88, 16.31, 0.000, 0.000, 0.000, 10:18:14.773, 
150, 13.01, 12.81, 16.31, 19.15, 0.000, 0.000, 0.000, 10:18:14.773, 
151, 10.68, 7.81, 13.18, 12.08, 0.000, 0.000, 0.000, 10:18:14.787, 
152, 15.49, 11.46, 13.32, 16.28, 0.000, 0.000, 0.000, 10:18:14.787, 
153, 17.21, 10.04, 20.42, 19.31, 0.000, 0.000, 0.000, 10:18:14.816, 
154, 16.85, 11.29, 17.51, 12.21, 0.000, 0.000, 0.000, 10:18:14.817, 
155, 11.95, 7.25, 13.49, 7.59, 0.000, 0.000, 0.000, 10:18:14.817, 
156, 12.53, 8.52, 15.99, 13.42, 0.000, 0.000, 0.000, 10:18:14.817, 
157, 13.75, 8.87, 19.90, 25.49, 0.000, 0.000, 0.000, 10:18:14.817, 
158, 11.99, 13.11, 14.58, 8.27, 0.000, 0.000, 0.000, 10:18:14.817, 
159, 11.96, 5.74, 8.52, 4.47, 0.000, 0.000, 0.000, 10:18:14.819, 
160, 13.02, 14.35, 14.39, 12.03, 0.000, 0.000, 0.000, 10:18:14.819, 
161, 16.04, 12.21, 18.91, 13.67, 0.000, 0.000, 0.000, 10:18:14.831, 
162, 13.42, 13.21, 17.01, 15.14, 0.000, 0.000, 0.000, 10:18:14.831, 
163, 10.02, 8.26, 15.37, 10.35, 0.000, 0.000, 0.000, 10:18:14.846, 
164, 14.39, 13.11, 14.00, 13.35, 0.000, 0.000, 0.000, 10:18:14.846, 
165, 20.38, 16.95, 19.87, 18.91, 0.000, 0.000, 0.000, 10:18:14.861, 
166, 13.78, 11.00, 18.57, 13.43, 0.000, 0.000, 0.000, 10:18:14.861, 
167, 8.37, 4.77, 12.07, 11.10, 0.000, 0.000, 0.000, 10:18:14.861, 
168, 14.40, 7.14, 21.15, 12.91, 0.000, 0.000, 0.000, 10:18:14.862, 
169, 15.80, 13.67, 23.94, 15.62, 0.000, 0.000, 0.000, 10:18:14.876, 
170, 12.75, 10.38, 15.74, 9.21, 0.000, 0.000, 0.000, 10:18:14.877, 
171, 13.77, 6.45, 10.74, 6.06, 0.000, 0.000, 0.000, 10:18:14.891, 
172, 11.54, 7.18, 14.71, 14.99, 0.000, 0.000, 0.000, 10:18:14.891, 
173, 13.79, 15.44, 21.27, 15.99, 0.000, 0.000, 0.000, 10:18:14.892, 
174, 14.93, 10.14, 17.47, 14.33, 0.000, 0.000, 0.000, 10:18:14.892, 
175, 14.64, 9.31, 10.90, 12.69, 0.000, 0.000, 0.000, 10:18:14.906, 
176, 12.85, 10.90, 15.87, 13.84, 0.000, 0.000, 0.000, 10:18:14.906, 
177, 15.61, 12.95, 20.02, 16.63, 0.000, 0.000, 0.000, 10:18:14.922, 
178, 16.23, 9.92, 17.16, 14.01, 0.000, 0.000, 0.000, 10:18:14.923, 
179, 8.70, 3.64, 10.64, 10.83, 0.000, 0.000, 0.000, 10:18:14.923, 
180, 9.79, 5.65, 10.65, 13.11, 0.000, 0.000, 0.000, 10:18:14.923, 
181, 16.06, 16.91, 20.29, 12.91, 0.000, 0.000, 0.000, 10:18:14.938, 
182, 11.61, 11.12, 15.29, 14.71, 0.000, 0.000, 0.000, 10:18:14.939, 
183, 8.82, 6.27, 9.87, 12.88, 0.000, 0.000, 0.000, 10:18:14.955, 
184, 13.86, 10.53, 14.17, 13.27, 0.000, 0.000, 0.000, 10:18:14.955, 
185, 14.92, 15.70, 19.34, 19.90, 0.000, 0.000, 0.000, 10:18:14.956, 
186, 13.39, 10.63, 18.04, 10.53, 0.000, 0.000, 0.000, 10:18:14.956, 
187, 13.88, 10.67, 13.61, 8.80, 0.000, 0.000, 0.000, 10:18:14.966, 
188, 11.82, 13.67, 19.18, 15.49, 0.000, 0.000, 0.000, 10:18:14.966, 
189, 15.97, 17.86, 22.11, 20.91, 0.000, 0.000, 0.000, 10:18:14.981, 
190, 13.73, 10.82, 16.80, 15.07, 0.000, 0.000, 0.000, 10:18:14.981, 
191, 14.84, 8.42, 13.19, 11.60, 0.000, 0.000, 0.000, 10:18:14.981, 
192, 15.49, 11.76, 16.23, 19.09, 0.000, 0.000, 0.000, 10:18:14.981, 
193, 14.39, 13.34, 19.99, 16.92, 0.000, 0.000, 0.000, 10:18:15.012, 
194, 14.35, 13.65, 13.80, 13.49, 0.000, 0.000, 0.000, 10:18:15.012, 
195, 10.49, 11.63, 10.57, 6.16, 0.000, 0.000, 0.000, 10:18:15.012, 
196, 13.55, 12.44, 20.05, 15.98, 0.000, 0.000, 0.000, 10:18:15.012, 
197, 15.22, 14.30, 17.55, 17.71, 0.000, 0.000, 0.000, 10:18:15.013, 
198, 12.64, 10.62, 15.16, 15.75, 0.000, 0.000, 0.000, 10:18:15.013, 
199, 10.69, 7.82, 11.72, 7.05, 0.000, 0.000, 0.000, 10:18:15.027, 
200, 14.11, 7.99, 17.92, 13.88, 0.000, 0.000, 0.000, 10:18:15.027, 
0, 14.59, 12.78, 15.11, 16.63, 0.000, 0.000, 0.000, 10:18:15.027, 
1, 15.40, 8.64, 18.75, 19.97, 0.000, 0.000, 0.000, 10:18:15.058, 
2, 13.73, 5.46, 16.54, 14.99, 0.000, 0.000, 0.000, 10:18:15.058, 
3, 13.89, 9.61, 18.43, 10.47, 0.000, 0.000, 0.000, 10:18:15.059, 
4, 16.36, 15.82, 20.85, 17.30, 0.000, 0.000, 0.000, 10:18:15.059, 
5, 12.58, 13.08, 16.76, 16.20, 0.000, 0.000, 0.000, 10:18:15.060, 
6, 9.84, 6.12, 16.11, 14.57, 0.000, 0.000, 0.000, 10:18:15.060, 
7, 16.01, 11.26, 14.55, 18.50, 0.000, 0.000, 0.000, 10:18:15.075, 
8, 15.97, 14.44, 22.47, 13.15, 0.000, 0.000, 0.000, 10:18:15.076, 
9, 11.08, 10.31, 18.41, 21.04, 0.000, 0.000, 0.000, 10:18:15.087, 
10, 12.77, 11.26, 15.53, 12.30, 0.000, 0.000, 0.000, 10:18:15.088, 
11, 14.16, 14.70, 16.39, 17.52, 0.000, 0.000, 0.000, 10:18:15.088, 
12, 14.24, 12.97, 17.69, 17.54, 0.000, 0.000, 0.000, 10:18:15.089, 
13, 14.49, 12.18, 16.63, 11.56, 0.000, 0.000, 0.000, 10:18:15.102, 
14, 11.22, 8.42, 8.62, 6.89, 0.000, 0.000, 0.000, 10:18:15.103, 
15, 14.32, 10.36, 19.44, 17.47, 0.000, 0.000, 0.000, 10:18:15.116, 
16, 18.22, 14.97, 21.97, 21.61, 0.000, 0.000, 0.000, 10:18:15.117, 
17, 17.60, 10.24, 16.31, 19.30, 0.000, 0.000, 0.000, 10:18:15.118, 
18, 11.28, 6.19, 16.39, 21.09, 0.000, 0.000, 0.000, 10:18:15.119, 
19, 11.00, 9.24, 15.71, 22.27, 0.000, 0.000, 0.000, 10:18:15.131, 
20, 13.33, 14.33, 20.91, 18.13, 0.000, 0.000, 0.000, 10:18:15.132, 
21, 11.47, 12.98, 15.27, 13.59, 0.000, 0.000, 0.000, 10:18:15.146, 
22, 12.40, 5.95, 13.01, 7.20, 0.000, 0.000, 0.000, 10:18:15.147, 
23, 16.80, 9.50, 14.53, 10.47, 0.000, 0.000, 0.000, 10:18:15.148, 
24, 15.53, 12.35, 21.74, 14.25, 0.000, 0.000, 0.000, 10:18:15.149, 
25, 11.80, 8.61, 15.82, 9.65, 0.000, 0.000, 0.000, 10:18:15.162, 
26, 11.73, 8.53, 13.47, 9.36, 0.000, 0.000, 0.000, 10:18:15.162, 
27, 13.31, 13.99, 15.84, 17.45, 0.000, 0.000, 0.000, 10:18:15.177, 
28, 12.32, 16.65, 19.45, 17.95, 0.000, 0.000, 0.000, 10:18:15.177, 
29, 12.86, 10.16, 14.59, 16.45, 0.000, 0.000, 0.000, 10:18:15.184, 
30, 13.15, 13.88, 13.32, 14.16, 0.000, 0.000, 0.000, 10:18:15.185, 
31, 11.29, 12.67, 18.20, 11.11, 0.000, 0.000, 0.000, 10:18:15.191, 
32, 16.33, 13.74, 21.71, 14.43, 0.000, 0.000, 0.000, 10:18:15.193, 
33, 12.62, 9.50, 11.95, 13.51, 0.000, 0.000, 0.000, 10:18:15.207, 
34, 10.86, 8.62, 11.44, 14.11, 0.000, 0.000, 0.000, 10:18:15.207, 
35, 13.42, 8.82, 18.47, 19.01, 0.000, 0.000, 0.000, 10:18:15.208, 
36, 13.27, 15.08, 19.33, 20.92, 0.000, 0.000, 0.000, 10:18:15.208, 
37, 13.50, 11.49, 18.94, 19.53, 0.000, 0.000, 0.000, 10:18:15.222, 
38, 14.77, 6.17, 17.47, 16.15, 0.000, 0.000, 0.000, 10:18:15.223, 
39, 12.10, 14.51, 17.54, 24.15, 0.000, 0.000, 0.000, 10:18:15.237, 
40, 17.47, 17.25, 16.35, 20.84, 0.000, 0.000, 0.000, 10:18:15.238, 
41, 18.42, 7.79, 15.63, 17.81, 0.000, 0.000, 0.000, 10:18:15.239, 
42, 7.62, 7.20, 14.92, 12.64, 0.000, 0.000, 0.000, 10:18:15.239, 
43, 17.04, 11.61, 16.81, 12.37, 0.000, 0.000, 0.000, 10:18:15.252, 
44, 16.68, 13.49, 20.92, 17.78, 0.000, 0.000, 0.000, 10:18:15.253, 
45, 13.84, 12.52, 17.56, 12.29, 0.000, 0.000, 0.000, 10:18:15.266, 
46, 9.63, 12.76, 11.81, 15.10, 0.000, 0.000, 0.000, 10:18:15.266, 
47, 13.80, 8.59, 14.27, 11.11, 0.000, 0.000, 0.000, 10:18:15.266, 
48, 13.71, 16.71, 15.19, 16.11, 0.000, 0.000, 0.000, 10:18:15.267, 
49, 13.89, 11.98, 16.41, 18.73, 0.000, 0.000, 0.000, 10:18:15.281, 
50, 9.58, 9.05, 13.51, 12.89, 0.000, 0.000, 0.000, 10:18:15.281, 
51, 15.34, 13.70, 16.43, 14.64, 0.000, 0.000, 0.000, 10:18:15.296, 
52, 16.26, 13.15, 20.51, 18.58, 0.000, 0.000, 0.000, 10:18:15.296, 
53, 11.13, 12.32, 12.76, 12.40, 0.000, 0.000, 0.000, 10:18:15.296, 
54, 12.06, 6.60, 11.75, 17.84, 0.000, 0.000, 0.000, 10:18:15.297, 
55, 16.39, 14.11, 17.38, 22.47, 0.000, 0.000, 0.000, 10:18:15.311, 
56, 15.23, 15.34, 19.56, 14.06, 0.000, 0.000, 0.000, 10:18:15.311, 
57, 14.30, 9.98, 14.98, 14.38, 0.000, 0.000, 0.000, 10:18:15.325, 
58, 12.73, 5.71, 11.42, 13.10, 0.000, 0.000, 0.000, 10:18:15.326, 
59, 14.04, 10.89, 18.00, 14.77, 0.000, 0.000, 0.000, 10:18:15.330, 
60, 17.49, 12.03, 22.92, 18.00, 0.000, 0.000, 0.000, 10:18:15.330, 
61, 15.05, 9.63, 15.01, 21.55, 0.000, 0.000, 0.000, 10:18:15.341, 
62, 9.40, 9.12, 11.11, 10.98, 0.000, 0.000, 0.000, 10:18:15.342, 
63, 17.21, 10.89, 16.38, 15.08, 0.000, 0.000, 0.000, 10:18:15.356, 
64, 12.35, 14.72, 16.38, 16.75, 0.000, 0.000, 0.000, 10:18:15.356, 
65, 16.28, 13.35, 15.82, 9.86, 0.000, 0.000, 0.000, 10:18:15.356, 
66, 12.13, 10.39, 14.34, 7.43, 0.000, 0.000, 0.000, 10:18:15.356, 
67, 13.50, 11.27, 13.52, 16.85, 0.000, 0.000, 0.000, 10:18:15.372, 
68, 17.59, 14.09, 18.13, 23.83, 0.000, 0.000, 0.000, 10:18:15.373, 
69, 16.66, 11.37, 16.28, 22.67, 0.000, 0.000, 0.000, 10:18:15.386, 
70, 11.51, 7.01, 11.81, 17.17, 0.000, 0.000, 0.000, 10:18:15.386, 
71, 12.32, 10.88, 19.88, 15.72, 0.000, 0.000, 0.000, 10:18:15.387, 
72, 18.28, 12.61, 22.70, 17.50, 0.000, 0.000, 0.000, 10:18:15.387, 
73, 13.10, 11.30, 16.38, 13.37, 0.000, 0.000, 0.000, 10:18:15.401, 
74, 11.11, 4.91, 15.17, 8.77, 0.000, 0.000, 0.000, 10:18:15.402, 
75, 12.12, 5.26, 14.33, 15.39, 0.000, 0.000, 0.000, 10:18:15.416, 
76, 11.86, 16.28, 20.07, 17.74, 0.000, 0.000, 0.000, 10:18:15.417, 
77, 13.47, 13.86, 16.08, 14.62, 0.000, 0.000, 0.000, 10:18:15.417, 
78, 11.18, 6.18, 14.59, 12.56, 0.000, 0.000, 0.000, 10:18:15.417, 
79, 12.57, 6.99, 18.76, 13.45, 0.000, 0.000, 0.000, 10:18:15.431, 
80, 10.70, 11.43, 17.63, 18.12, 0.000, 0.000, 0.000, 10:18:15.431, 
81, 11.92, 10.21, 12.96, 10.97, 0.000, 0.000, 0.000, 10:18:15.446, 
82, 12.16, 11.52, 14.85, 9.98, 0.000, 0.000, 0.000, 10:18:15.446, 
83, 11.77, 11.49, 12.83, 10.39, 0.000, 0.000, 0.000, 10:18:15.447, 
84, 16.91, 15.47, 22.43, 15.81, 0.000, 0.000, 0.000, 10:18:15.447, 
85, 14.18, 12.98, 17.03, 14.02, 0.000, 0.000, 0.000, 10:18:15.461, 
86, 11.51, 8.23, 9.10, 12.37, 0.000, 0.000, 0.000, 10:18:15.461, 
87, 14.06, 13.49, 16.27, 15.78, 0.000, 0.000, 0.000, 10:18:15.476, 
88, 16.13, 15.13, 21.43, 15.86, 0.000, 0.000, 0.000, 10:18:15.477, 
89, 15.10, 14.42, 17.16, 17.99, 0.000, 0.000, 0.000, 10:18:15.477, 
90, 11.79, 8.34, 12.60, 12.61, 0.000, 0.000, 0.000, 10:18:15.477, 
91, 13.12, 13.98, 15.96, 15.94, 0.000, 0.000, 0.000, 10:18:15.491, 
92, 19.18, 19.24, 25.79, 20.65, 0.000, 0.000, 0.000, 10:18:15.491, 
93, 14.31, 7.85, 16.53, 14.46, 0.000, 0.000, 0.000, 10:18:15.507, 
94, 16.71, 8.52, 14.11, 15.51, 0.000, 0.000, 0.000, 10:18:15.507, 
95, 9.62, 4.61, 14.28, 19.54, 0.000, 0.000, 0.000, 10:18:15.507, 
96, 15.69, 12.33, 22.04, 22.27, 0.000, 0.000, 0.000, 10:18:15.508, 
97, 13.65, 7.60, 16.86, 17.09, 0.000, 0.000, 0.000, 10:18:15.528, 
98, 10.92, 6.89, 11.22, 18.15, 0.000, 0.000, 0.000, 10:18:15.528, 
99, 15.30, 12.96, 16.96, 21.18, 0.000, 0.000, 0.000, 10:18:15.537, 
100, 17.56, 9.85, 20.08, 24.33, 0.000, 0.000, 0.000, 10:18:15.537, 
101, 13.88, 16.80, 19.28, 12.90, 0.000, 0.000, 0.000, 10:18:15.538, 
102, 14.81, 7.76, 13.27, 7.49, 0.000, 0.000, 0.000, 10:18:15.538, 
103, 14.23, 11.94, 15.96, 15.28, 0.000, 0.000, 0.000, 10:18:15.551, 
104, 15.50, 14.40, 18.87, 17.63, 0.000, 0.000, 0.000, 10:18:15.552, 
105, 7.62, 13.30, 14.50, 10.39, 0.000, 0.000, 0.000, 10:18:15.566, 
106, 10.09, 7.81, 10.69, 16.71, 0.000, 0.000, 0.000, 10:18:15.566, 
107, 11.74, 11.68, 16.79, 19.92, 0.000, 0.000, 0.000, 10:18:15.567, 
108, 13.74, 13.12, 19.55, 15.74, 0.000, 0.000, 0.000, 10:18:15.567, 
109, 15.32, 10.08, 14.12, 12.29, 0.000, 0.000, 0.000, 10:18:15.581, 
110, 10.05, 6.59, 14.30, 7.21, 0.000, 0.000, 0.000, 10:18:15.582, 
111, 13.48, 10.97, 14.15, 15.30, 0.000, 0.000, 0.000, 10:18:15.596, 
112, 14.02, 12.76, 20.83, 21.50, 0.000, 0.000, 0.000, 10:18:15.596, 
113, 14.48, 10.96, 16.77, 17.00, 0.000, 0.000, 0.000, 10:18:15.597, 
114, 12.29, 5.47, 10.35, 17.37, 0.000, 0.000, 0.000, 10:18:15.597, 
115, 15.17, 9.50, 18.10, 18.68, 0.000, 0.000, 0.000, 10:18:15.611, 
116, 17.61, 13.97, 19.84, 17.47, 0.000, 0.000, 0.000, 10:18:15.611, 
117, 14.07, 13.03, 19.29, 15.01, 0.000, 0.000, 0.000, 10:18:15.626, 
118, 11.83, 5.70, 14.15, 10.32, 0.000, 0.000, 0.000, 10:18:15.626, 
119, 12.79, 11.34, 16.68, 15.18, 0.000, 0.000, 0.000, 10:18:15.627, 
120, 15.85, 10.52, 22.46, 17.68, 0.000, 0.000, 0.000, 10:18:15.627, 
121, 12.26, 8.71, 13.61, 15.88, 0.000, 0.000, 0.000, 10:18:15.641, 
122, 10.81, 9.46, 14.10, 10.50, 0.000, 0.000, 0.000, 10:18:15.642, 
123, 17.41, 12.57, 20.04, 17.34, 0.000, 0.000, 0.000, 10:18:15.657, 
124, 16.69, 14.66, 24.34, 15.97, 0.000, 0.000, 0.000, 10:18:15.657, 
125, 12.29, 13.54, 14.06, 15.48, 0.000, 0.000, 0.000, 10:18:15.657, 
126, 14.58, 8.53, 12.04, 14.40, 0.000, 0.000, 0.000, 10:18:15.657, 
127, 12.85, 9.47, 13.67, 19.83, 0.000, 0.000, 0.000, 10:18:15.672, 
128, 14.26, 12.78, 18.51, 17.77, 0.000, 0.000, 0.000, 10:18:15.674, 
129, 8.81, 11.99, 17.66, 15.89, 0.000, 0.000, 0.000, 10:18:15.687, 
130, 10.65, 10.14, 13.05, 14.49, 0.000, 0.000, 0.000, 10:18:15.689, 
131, 12.12, 12.23, 16.50, 10.95, 0.000, 0.000, 0.000, 10:18:15.690, 
132, 18.56, 16.73, 24.30, 20.07, 0.000, 0.000, 0.000, 10:18:15.691, 
133, 15.61, 12.08, 18.22, 15.70, 0.000, 0.000, 0.000, 10:18:15.708, 
134, 12.15, 5.91, 11.66, 9.32, 0.000, 0.000, 0.000, 10:18:15.709, 
135, 12.67, 8.36, 15.26, 8.47, 0.000, 0.000, 0.000, 10:18:15.721, 
136, 16.56, 11.90, 17.56, 15.89, 0.000, 0.000, 0.000, 10:18:15.723, 
137, 13.13, 11.05, 15.93, 9.62, 0.000, 0.000, 0.000, 10:18:15.723, 
138, 11.70, 5.85, 10.78, 12.28, 0.000, 0.000, 0.000, 10:18:15.724, 
139, 13.09, 12.59, 17.82, 14.80, 0.000, 0.000, 0.000, 10:18:15.731, 
140, 16.04, 15.55, 21.41, 12.29, 0.000, 0.000, 0.000, 10:18:15.731, 
141, 14.59, 11.60, 16.66, 14.95, 0.000, 0.000, 0.000, 10:18:15.746, 
142, 10.02, 7.18, 11.46, 9.04, 0.000, 0.000, 0.000, 10:18:15.747, 
143, 16.49, 13.76, 17.79, 17.06, 0.000, 0.000, 0.000, 10:18:15.747, 
144, 14.44, 13.25, 21.63, 20.35, 0.000, 0.000, 0.000, 10:18:15.747, 
145, 12.98, 13.69, 18.16, 15.15, 0.000, 0.000, 0.000, 10:18:15.761, 
146, 16.07, 10.18, 14.33, 6.08, 0.000, 0.000, 0.000, 10:18:15.761, 
147, 14.28, 9.00, 11.31, 11.06, 0.000, 0.000, 0.000, 10:18:15.776, 
148, 12.45, 12.26, 19.26, 12.47, 0.000, 0.000, 0.000, 10:18:15.776, 
149, 14.33, 13.72, 13.07, 15.11, 0.000, 0.000, 0.000, 10:18:15.777, 
150, 11.39, 8.68, 13.20, 15.83, 0.000, 0.000, 0.000, 10:18:15.777, 
151, 13.21, 12.25, 22.18, 14.31, 0.000, 0.000, 0.000, 10:18:15.791, 
152, 14.07, 11.81, 24.06, 20.53, 0.000, 0.000, 0.000, 10:18:15.791, 
153, 13.96, 9.56, 16.62, 16.01, 0.000, 0.000, 0.000, 10:18:15.806, 
154, 7.20, 5.82, 13.90, 10.14, 0.000, 0.000, 0.000, 10:18:15.807, 
155, 17.22, 12.09, 15.76, 17.71, 0.000, 0.000, 0.000, 10:18:15.807, 
156, 15.69, 15.32, 21.07, 21.04, 0.000, 0.000, 0.000, 10:18:15.807, 
157, 12.69, 12.38, 17.73, 22.08, 0.000, 0.000, 0.000, 10:18:15.822, 
158, 11.29, 6.07, 10.10, 9.90, 0.000, 0.000, 0.000, 10:18:15.823, 
159, 16.71, 9.21, 15.23, 13.48, 0.000, 0.000, 0.000, 10:18:15.852, 
160, 11.77, 14.59, 19.36, 17.08, 0.000, 0.000, 0.000, 10:18:15.853, 
161, 15.33, 13.36, 16.56, 15.09, 0.000, 0.000, 0.000, 10:18:15.854, 
162, 10.03, 3.54, 15.15, 8.68, 0.000, 0.000, 0.000, 10:18:15.854, 
163, 12.62, 12.35, 18.09, 10.30, 0.000, 0.000, 0.000, 10:18:15.855, 
164, 15.93, 14.41, 20.48, 9.89, 0.000, 0.000, 0.000, 10:18:15.856, 
165, 16.89, 13.52, 17.68, 10.04, 0.000, 0.000, 0.000, 10:18:15.857, 
166, 14.62, 15.27, 14.61, 8.62, 0.000, 0.000, 0.000, 10:18:15.858, 
167, 11.83, 9.24, 14.99, 16.24, 0.000, 0.000, 0.000, 10:18:15.866, 
168, 11.58, 14.83, 19.74, 19.10, 0.000, 0.000, 0.000, 10:18:15.866, 
169, 12.26, 8.51, 17.26, 19.81, 0.000, 0.000, 0.000, 10:18:15.881, 
170, 13.24, 11.50, 13.68, 12.59, 0.000, 0.000, 0.000, 10:18:15.882, 
171, 14.99, 11.71, 14.85, 15.51, 0.000, 0.000, 0.000, 10:18:15.896, 
172, 19.41, 17.04, 20.43, 20.38, 0.000, 0.000, 0.000, 10:18:15.897, 
173, 9.85, 11.67, 17.29, 19.77, 0.000, 0.000, 0.000, 10:18:15.897, 
174, 14.49, 7.45, 12.65, 17.33, 0.000, 0.000, 0.000, 10:18:15.897, 
175, 14.56, 14.41, 15.85, 14.00, 0.000, 0.000, 0.000, 10:18:15.911, 
176, 11.26, 15.95, 22.53, 23.00, 0.000, 0.000, 0.000, 10:18:15.911, 
177, 15.81, 10.57, 15.73, 22.79, 0.000, 0.000, 0.000, 10:18:15.926, 
178, 12.94, 9.53, 14.45, 16.99, 0.000, 0.000, 0.000, 10:18:15.926, 
179, 8.96, 7.31, 13.96, 18.62, 0.000, 0.000, 0.000, 10:18:15.926, 
180, 14.05, 10.64, 18.99, 19.17, 0.000, 0.000, 0.000, 10:18:15.926, 
181, 14.22, 11.83, 16.64, 13.41, 0.000, 0.000, 0.000, 10:18:15.941, 
182, 10.85, 8.66, 8.02, 10.40, 0.000, 0.000, 0.000, 10:18:15.941, 
183, 13.93, 10.85, 15.35, 18.28, 0.000, 0.000, 0.000, 10:18:15.956, 
184, 16.43, 14.30, 19.85, 17.25, 0.000, 0.000, 0.000, 10:18:15.956, 
185, 14.45, 9.94, 20.24, 16.30, 0.000, 0.000, 0.000, 10:18:15.956, 
186, 12.04, 8.14, 13.38, 11.62, 0.000, 0.000, 0.000, 10:18:15.956, 
187, 10.28, 11.21, 16.05, 11.04, 0.000, 0.000, 0.000, 10:18:15.973, 
188, 17.89, 15.42, 21.80, 17.08, 0.000, 0.000, 0.000, 10:18:15.973, 
189, 12.68, 6.04, 13.77, 15.88, 0.000, 0.000, 0.000, 10:18:15.986, 
190, 13.17, 8.98, 17.63, 10.78, 0.000, 0.000, 0.000, 10:18:15.986, 
191, 12.59, 11.53, 14.62, 24.00, 0.000, 0.000, 0.000, 10:18:15.987, 
192, 15.26, 11.67, 18.17, 18.56, 0.000, 0.000, 0.000, 10:18:15.987, 
193, 11.53, 12.26, 17.33, 10.22, 0.000, 0.000, 0.000, 10:18:16.017, 
194, 13.66, 7.37, 13.44, 9.37, 0.000, 0.000, 0.000, 10:18:16.017, 
195, 13.75, 8.62, 16.51, 5.08, 0.000, 0.000, 0.000, 10:18:16.017, 
196, 17.57, 11.72, 17.59, 17.26, 0.000, 0.000, 0.000, 10:18:16.018, 
197, 11.96, 8.28, 15.05, 20.30, 0.000, 0.000, 0.000, 10:18:16.019, 
198, 13.42, 8.12, 12.19, 14.27, 0.000, 0.000, 0.000, 10:18:16.020, 
199, 13.08, 14.41, 14.05, 21.51, 0.000, 0.000, 0.000, 10:18:16.032, 
200, 15.65, 15.44, 20.84, 23.43, 0.000, 0.000, 0.000, 10:18:16.032, 
0, 17.31, 12.29, 16.55, 27.68, 0.000, 0.000, 0.000, 10:18:16.032, 
1, 10.96, 7.50, 13.80, 18.21, 0.000, 0.000, 0.000, 10:18:16.047, 
2, 12.91, 9.79, 19.62, 17.69, 0.000, 0.000, 0.000, 10:18:16.047, 
3, 16.99, 13.27, 17.23, 20.48, 0.000, 0.000, 0.000, 10:18:16.061, 
4, 10.89, 8.56, 15.26, 16.19, 0.000, 0.000, 0.000, 10:18:16.062, 
5, 9.76, 8.91, 12.51, 11.51, 0.000, 0.000, 0.000, 10:18:16.062, 
6, 13.69, 10.49, 17.85, 15.09, 0.000, 0.000, 0.000, 10:18:16.062, 
7, 14.88, 11.12, 23.77, 14.88, 0.000, 0.000, 0.000, 10:18:16.077, 
8, 9.35, 11.79, 15.21, 13.39, 0.000, 0.000, 0.000, 10:18:16.078, 
9, 15.98, 7.16, 15.37, 11.05, 0.000, 0.000, 0.000, 10:18:16.093, 
10, 11.87, 12.97, 16.95, 20.16, 0.000, 0.000, 0.000, 10:18:16.094, 
11, 19.09, 19.26, 18.87, 25.27, 0.000, 0.000, 0.000, 10:18:16.094, 
12, 14.30, 11.35, 17.41, 20.18, 0.000, 0.000, 0.000, 10:18:16.094, 
13, 10.00, 7.61, 17.16, 14.11, 0.000, 0.000, 0.000, 10:18:16.107, 
14, 12.82, 12.59, 14.83, 13.84, 0.000, 0.000, 0.000, 10:18:16.107, 
15, 11.28, 15.93, 18.45, 15.77, 0.000, 0.000, 0.000, 10:18:16.122, 
16, 9.38, 13.14, 8.97, 14.89, 0.000, 0.000, 0.000, 10:18:16.122, 
17, 13.40, 10.30, 15.13, 6.87, 0.000, 0.000, 0.000, 10:18:16.123, 
18, 20.01, 9.98, 14.52, 12.81, 0.000, 0.000, 0.000, 10:18:16.123, 
19, 15.15, 14.74, 18.46, 17.61, 0.000, 0.000, 0.000, 10:18:16.136, 
20, 13.44, 12.79, 15.14, 18.40, 0.000, 0.000, 0.000, 10:18:16.136, 
21, 11.38, 9.59, 15.41, 12.01, 0.000, 0.000, 0.000, 10:18:16.154, 
22, 12.84, 9.71, 18.65, 10.86, 0.000, 0.000, 0.000, 10:18:16.154, 
23, 19.43, 15.59, 22.48, 14.12, 0.000, 0.000, 0.000, 10:18:16.166, 
24, 13.70, 10.66, 14.94, 20.89, 0.000, 0.000, 0.000, 10:18:16.166, 
25, 10.90, 4.30, 16.37, 11.47, 0.000, 0.000, 0.000, 10:18:16.166, 
26, 14.12, 10.83, 16.72, 8.81, 0.000, 0.000, 0.000, 10:18:16.166, 
27, 16.36, 10.49, 22.57, 10.00, 0.000, 0.000, 0.000, 10:18:16.180, 
28, 12.26, 11.24, 14.83, 12.79, 0.000, 0.000, 0.000, 10:18:16.181, 
29, 9.46, 3.99, 10.89, 10.98, 0.000, 0.000, 0.000, 10:18:16.181, 
30, 13.27, 13.59, 20.75, 11.17, 0.000, 0.000, 0.000, 10:18:16.181, 
31, 17.24, 17.65, 22.95, 15.57, 0.000, 0.000, 0.000, 10:18:16.196, 
32, 13.73, 10.02, 14.28, 17.44, 0.000, 0.000, 0.000, 10:18:16.196, 
33, 10.86, 4.37, 8.54, 11.49, 0.000, 0.000, 0.000, 10:18:16.210, 
34, 13.39, 16.12, 14.59, 12.49, 0.000, 0.000, 0.000, 10:18:16.211, 
35, 15.00, 15.43, 18.22, 14.60, 0.000, 0.000, 0.000, 10:18:16.211, 
36, 14.88, 12.72, 18.25, 17.86, 0.000, 0.000, 0.000, 10:18:16.211, 
37, 13.21, 11.47, 17.38, 12.15, 0.000, 0.000, 0.000, 10:18:16.225, 
38, 12.39, 12.06, 14.40, 11.86, 0.000, 0.000, 0.000, 10:18:16.226, 
39, 14.77, 9.31, 16.81, 17.67, 0.000, 0.000, 0.000, 10:18:16.240, 
40, 11.46, 11.59, 16.12, 15.32, 0.000, 0.000, 0.000, 10:18:16.241, 
41, 10.99, 10.83, 14.83, 12.29, 0.000, 0.000, 0.000, 10:18:16.241, 
42, 10.81, 9.50, 18.24, 18.24, 0.000, 0.000, 0.000, 10:18:16.241, 
43, 17.74, 11.35, 17.95, 17.34, 0.000, 0.000, 0.000, 10:18:16.255, 
44, 12.02, 11.98, 15.59, 17.06, 0.000, 0.000, 0.000, 10:18:16.256, 
45, 11.41, 8.64, 13.65, 17.25, 0.000, 0.000, 0.000, 10:18:16.271, 
46, 13.44, 11.36, 15.50, 26.50, 0.000, 0.000, 0.000, 10:18:16.271, 
47, 15.74, 13.39, 20.26, 19.91, 0.000, 0.000, 0.000, 10:18:16.271, 
48, 13.71, 10.25, 18.75, 17.91, 0.000, 0.000, 0.000, 10:18:16.272, 
49, 13.28, 6.40, 14.59, 11.12, 0.000, 0.000, 0.000, 10:18:16.286, 
50, 14.08, 8.54, 14.78, 12.61, 0.000, 0.000, 0.000, 10:18:16.286, 
51, 16.02, 14.41, 20.48, 10.35, 0.000, 0.000, 0.000, 10:18:16.301, 
52, 13.53, 11.05, 17.62, 5.62, 0.000, 0.000, 0.000, 10:18:16.302, 
53, 8.32, 5.37, 10.28, 12.95, 0.000, 0.000, 0.000, 10:18:16.308, 
54, 12.55, 10.65, 13.85, 13.50, 0.000, 0.000, 0.000, 10:18:16.308, 
55, 18.99, 14.26, 20.33, 21.34, 0.000, 0.000, 0.000, 10:18:16.316, 
56, 16.11, 11.89, 16.95, 20.66, 0.000, 0.000, 0.000, 10:18:16.316, 
57, 16.09, 9.57, 11.87, 13.61, 0.000, 0.000, 0.000, 10:18:16.331, 
58, 15.46, 10.94, 12.89, 13.25, 0.000, 0.000, 0.000, 10:18:16.331, 
59, 19.08, 12.47, 22.68, 18.58, 0.000, 0.000, 0.000, 10:18:16.331, 
60, 13.27, 12.60, 14.87, 13.96, 0.000, 0.000, 0.000, 10:18:16.331, 
61, 11.10, 5.41, 11.98, 5.88, 0.000, 0.000, 0.000, 10:18:16.364, 
62, 7.29, 7.14, 14.92, 11.28, 0.000, 0.000, 0.000, 10:18:16.364, 
63, 15.94, 13.81, 19.45, 23.55, 0.000, 0.000, 0.000, 10:18:16.365, 
64, 17.08, 12.16, 16.04, 21.95, 0.000, 0.000, 0.000, 10:18:16.365, 
65, 9.97, 5.68, 14.38, 16.13, 0.000, 0.000, 0.000, 10:18:16.366, 
66, 14.26, 13.71, 13.38, 17.37, 0.000, 0.000, 0.000, 10:18:16.366, 
67, 15.76, 14.87, 15.37, 18.71, 0.000, 0.000, 0.000, 10:18:16.376, 
68, 15.51, 15.27, 17.26, 17.31, 0.000, 0.000, 0.000, 10:18:16.377, 
69, 10.97, 9.89, 12.70, 11.60, 0.000, 0.000, 0.000, 10:18:16.392, 
70, 12.54, 16.26, 13.20, 10.96, 0.000, 0.000, 0.000, 10:18:16.392, 
71, 14.73, 14.13, 20.09, 16.15, 0.000, 0.000, 0.000, 10:18:16.393, 
72, 13.81, 8.76, 18.27, 17.60, 0.000, 0.000, 0.000, 10:18:16.393, 
73, 12.06, 4.52, 14.78, 12.64, 0.000, 0.000, 0.000, 10:18:16.407, 
74, 10.92, 11.98, 22.31, 20.02, 0.000, 0.000, 0.000, 10:18:16.407, 
75, 16.13, 8.79, 18.77, 17.00, 0.000, 0.000, 0.000, 10:18:16.423, 
76, 16.24, 10.81, 14.57, 11.61, 0.000, 0.000, 0.000, 10:18:16.423, 
77, 12.90, 4.01, 13.66, 11.32, 0.000, 0.000, 0.000, 10:18:16.424, 
78, 13.86, 11.31, 12.52, 11.92, 0.000, 0.000, 0.000, 10:18:16.424, 
79, 14.28, 11.63, 18.28, 21.41, 0.000, 0.000, 0.000, 10:18:16.437, 
80, 13.91, 11.94, 17.83, 15.32, 0.000, 0.000, 0.000, 10:18:16.437, 
81, 9.55, 7.59, 15.79, 9.81, 0.000, 0.000, 0.000, 10:18:16.452, 
82, 8.73, 5.49, 15.21, 15.07, 0.000, 0.000, 0.000, 10:18:16.452, 
83, 13.62, 11.97, 21.24, 13.63, 0.000, 0.000, 0.000, 10:18:16.453, 
84, 16.61, 9.62, 17.74, 15.28, 0.000, 0.000, 0.000, 10:18:16.454, 
85, 11.81, 6.83, 13.57, 12.52, 0.000, 0.000, 0.000, 10:18:16.466, 
86, 12.74, 17.17, 17.96, 15.51, 0.000, 0.000, 0.000, 10:18:16.467, 
87, 14.74, 10.92, 21.40, 17.69, 0.000, 0.000, 0.000, 10:18:16.481, 
88, 12.88, 13.66, 15.38, 14.34, 0.000, 0.000, 0.000, 10:18:16.482, 
89, 11.70, 8.10, 15.81, 12.82, 0.000, 0.000, 0.000, 10:18:16.482, 
90, 14.25, 11.26, 17.38, 15.84, 0.000, 0.000, 0.000, 10:18:16.482, 
91, 17.55, 14.01, 20.10, 14.31, 0.000, 0.000, 0.000, 10:18:16.496, 
92, 13.64, 12.07, 14.09, 9.33, 0.000, 0.000, 0.000, 10:18:16.497, 
93, 16.54, 10.46, 14.14, 9.38, 0.000, 0.000, 0.000, 10:18:16.511, 
94, 14.10, 10.47, 17.09, 6.51, 0.000, 0.000, 0.000, 10:18:16.511, 
95, 16.44, 16.09, 17.16, 12.24, 0.000, 0.000, 0.000, 10:18:16.512, 
96, 13.52, 8.42, 18.35, 10.22, 0.000, 0.000, 0.000, 10:18:16.512, 
97, 12.43, 6.06, 14.74, 10.56, 0.000, 0.000, 0.000, 10:18:16.526, 
98, 14.01, 12.81, 18.12, 14.94, 0.000, 0.000, 0.000, 10:18:16.526, 
99, 16.96, 16.88, 18.91, 17.72, 0.000, 0.000, 0.000, 10:18:16.541, 
100, 15.40, 8.53, 17.79, 13.77, 0.000, 0.000, 0.000, 10:18:16.541, 
101, 16.27, 7.12, 8.59, 11.67, 0.000, 0.000, 0.000, 10:18:16.541, 
102, 12.62, 10.80, 15.90, 15.31, 0.000, 0.000, 0.000, 10:18:16.541, 
103, 19.55, 15.23, 18.73, 13.22, 0.000, 0.000, 0.000, 10:18:16.556, 
104, 16.06, 9.17, 18.58, 13.12, 0.000, 0.000, 0.000, 10:18:16.556, 
105, 8.38, 10.63, 13.22, 12.80, 0.000, 0.000, 0.000, 10:18:16.572, 
106, 15.27, 12.43, 15.19, 18.42, 0.000, 0.000, 0.000, 10:18:16.572, 
107, 13.61, 12.16, 22.93, 15.55, 0.000, 0.000, 0.000, 10:18:16.573, 
108, 11.17, 11.54, 14.15, 11.20, 0.000, 0.000, 0.000, 10:18:16.573, 
109, 7.78, 8.46, 11.78, 14.40, 0.000, 0.000, 0.000, 10:18:16.592, 
110, 11.92, 10.49, 19.50, 16.37, 0.000, 0.000, 0.000, 10:18:16.592, 
111, 16.80, 13.51, 22.70, 17.81, 0.000, 0.000, 0.000, 10:18:16.603, 
112, 10.94, 12.28, 14.67, 9.95, 0.000, 0.000, 0.000, 10:18:16.603, 
113, 11.30, 8.35, 12.48, 7.12, 0.000, 0.000, 0.000, 10:18:16.606, 
114, 14.28, 14.19, 17.71, 9.84, 0.000, 0.000, 0.000, 10:18:16.606, 
115, 17.53, 16.56, 19.63, 17.30, 0.000, 0.000, 0.000, 10:18:16.616, 
116, 12.66, 11.13, 19.14, 11.92, 0.000, 0.000, 0.000, 10:18:16.616, 
117, 13.57, 11.94, 16.80, 11.79, 0.000, 0.000, 0.000, 10:18:16.631, 
118, 11.87, 9.24, 15.48, 17.14, 0.000, 0.000, 0.000, 10:18:16.631, 
119, 15.25, 15.82, 19.07, 22.85, 0.000, 0.000, 0.000, 10:18:16.631, 
120, 14.02, 11.21, 17.78, 20.02, 0.000, 0.000, 0.000, 10:18:16.631, 
121, 15.69, 9.02, 15.06, 9.81, 0.000, 0.000, 0.000, 10:18:16.661, 
122, 11.92, 9.55, 15.87, 13.22, 0.000, 0.000, 0.000, 10:18:16.662, 
123, 12.38, 13.29, 21.78, 17.34, 0.000, 0.000, 0.000, 10:18:16.662, 
124, 13.95, 16.42, 17.87, 12.75, 0.000, 0.000, 0.000, 10:18:16.662, 
125, 8.96, 5.89, 7.34, 9.67, 0.000, 0.000, 0.000, 10:18:16.663, 
126, 8.66, 10.68, 15.13, 14.83, 0.000, 0.000, 0.000, 10:18:16.663, 
127, 14.91, 15.82, 20.25, 18.77, 0.000, 0.000, 0.000, 10:18:16.675, 
128, 11.39, 12.09, 13.51, 14.46, 0.000, 0.000, 0.000, 10:18:16.676, 
129, 13.04, 6.43, 13.85, 12.15, 0.000, 0.000, 0.000, 10:18:16.690, 
130, 16.11, 10.58, 13.66, 9.72, 0.000, 0.000, 0.000, 10:18:16.690, 
131, 12.85, 15.10, 17.36, 21.16, 0.000, 0.000, 0.000, 10:18:16.691, 
132, 15.52, 11.95, 16.39, 11.87, 0.000, 0.000, 0.000, 10:18:16.691, 
133, 11.19, 12.19, 11.78, 10.24, 0.000, 0.000, 0.000, 10:18:16.705, 
134, 13.36, 12.45, 16.81, 15.84, 0.000, 0.000, 0.000, 10:18:16.705, 
135, 13.58, 14.14, 20.49, 21.71, 0.000, 0.000, 0.000, 10:18:16.722, 
136, 12.30, 14.20, 19.28, 19.27, 0.000, 0.000, 0.000, 10:18:16.722, 
137, 10.55, 5.28, 15.15, 10.72, 0.000, 0.000, 0.000, 10:18:16.722, 
138, 11.81, 11.83, 15.27, 12.46, 0.000, 0.000, 0.000, 10:18:16.722, 
139, 17.48, 15.79, 20.43, 19.95, 0.000, 0.000, 0.000, 10:18:16.736, 
140, 12.19, 8.34, 14.73, 15.12, 0.000, 0.000, 0.000, 10:18:16.736, 
141, 10.86, 8.03, 10.35, 13.58, 0.000, 0.000, 0.000, 10:18:16.752, 
142, 14.62, 11.09, 14.10, 14.20, 0.000, 0.000, 0.000, 10:18:16.752, 
143, 16.37, 14.75, 19.65, 15.07, 0.000, 0.000, 0.000, 10:18:16.753, 
144, 13.62, 11.59, 18.44, 14.35, 0.000, 0.000, 0.000, 10:18:16.753, 
145, 8.44, 7.86, 16.22, 13.02, 0.000, 0.000, 0.000, 10:18:16.766, 
146, 11.76, 8.54, 17.08, 7.47, 0.000, 0.000, 0.000, 10:18:16.766, 
147, 18.48, 13.62, 19.08, 16.85, 0.000, 0.000, 0.000, 10:18:16.781, 
148, 17.75, 13.79, 19.37, 22.06, 0.000, 0.000, 0.000, 10:18:16.781, 
149, 9.28, 4.08, 11.19, 10.91, 0.000, 0.000, 0.000, 10:18:16.782, 
150, 12.29, 11.14, 15.66, 12.48, 0.000, 0.000, 0.000, 10:18:16.782, 
151, 12.87, 13.46, 18.38, 16.77, 0.000, 0.000, 0.000, 10:18:16.796, 
152, 10.04, 9.72, 13.88, 15.50, 0.000, 0.000, 0.000, 10:18:16.796, 
153, 13.00, 6.73, 14.12, 12.74, 0.000, 0.000, 0.000, 10:18:16.811, 
154, 16.38, 10.99, 18.10, 17.06, 0.000, 0.000, 0.000, 10:18:16.811, 
155, 17.23, 11.80, 20.25, 18.21, 0.000, 0.000, 0.000, 10:18:16.811, 
156, 13.41, 9.89, 16.72, 13.38, 0.000, 0.000, 0.000, 10:18:16.812, 
157, 9.70, 8.82, 13.57, 11.55, 0.000, 0.000, 0.000, 10:18:16.826, 
158, 14.00, 8.18, 16.23, 12.85, 0.000, 0.000, 0.000, 10:18:16.826, 
159, 18.88, 13.28, 17.12, 15.20, 0.000, 0.000, 0.000, 10:18:16.841, 
160, 16.55, 6.14, 16.98, 14.14, 0.000, 0.000, 0.000, 10:18:16.841, 
161, 12.56, 8.50, 13.01, 13.34, 0.000, 0.000, 0.000, 10:18:16.841, 
162, 15.48, 12.01, 18.13, 19.04, 0.000, 0.000, 0.000, 10:18:16.841, 
163, 17.89, 13.40, 16.45, 18.88, 0.000, 0.000, 0.000, 10:18:16.856, 
164, 12.08, 10.21, 14.34, 11.46, 0.000, 0.000, 0.000, 10:18:16.856, 
165, 10.76, 10.17, 9.84, 12.96, 0.000, 0.000, 0.000, 10:18:16.872, 
166, 13.85, 12.94, 17.12, 15.79, 0.000, 0.000, 0.000, 10:18:16.872, 
167, 17.84, 12.06, 21.24, 20.93, 0.000, 0.000, 0.000, 10:18:16.872, 
168, 12.95, 9.16, 18.10, 17.21, 0.000, 0.000, 0.000, 10:18:16.872, 
169, 13.21, 11.39, 12.63, 12.33, 0.000, 0.000, 0.000, 10:18:16.886, 
170, 7.81, 11.88, 19.20, 15.35, 0.000, 0.000, 0.000, 10:18:16.886, 
171, 16.28, 12.03, 15.55, 17.33, 0.000, 0.000, 0.000, 10:18:16.901, 
172, 11.88, 10.39, 18.20, 16.46, 0.000, 0.000, 0.000, 10:18:16.901, 
173, 13.79, 9.03, 16.00, 16.00, 0.000, 0.000, 0.000, 10:18:16.902, 
174, 15.71, 10.53, 18.07, 14.48, 0.000, 0.000, 0.000, 10:18:16.902, 
175, 17.18, 13.42, 25.99, 18.24, 0.000, 0.000, 0.000, 10:18:16.917, 
176, 11.88, 13.71, 16.23, 5.52, 0.000, 0.000, 0.000, 10:18:16.917, 
177, 11.13, 9.75, 14.15, 10.66, 0.000, 0.000, 0.000, 10:18:16.931, 
178, 14.37, 8.17, 15.44, 13.53, 0.000, 0.000, 0.000, 10:18:16.932, 
179, 15.41, 12.32, 20.51, 15.48, 0.000, 0.000, 0.000, 10:18:16.944, 
180, 15.96, 10.68, 15.85, 12.39, 0.000, 0.000, 0.000, 10:18:16.944, 
181, 7.63, 4.81, 10.28, 8.69, 0.000, 0.000, 0.000, 10:18:16.961, 
182, 13.85, 11.01, 16.65, 17.19, 0.000, 0.000, 0.000, 10:18:16.961, 
183, 17.49, 15.60, 21.55, 18.49, 0.000, 0.000, 0.000, 10:18:16.962, 
184, 17.13, 10.88, 15.17, 11.00, 0.000, 0.000, 0.000, 10:18:16.962, 
185, 10.52, 8.58, 10.09, 12.34, 0.000, 0.000, 0.000, 10:18:16.962, 
186, 12.03, 9.73, 13.99, 13.87, 0.000, 0.000, 0.000, 10:18:16.963, 
187, 18.34, 15.04, 20.67, 11.07, 0.000, 0.000, 0.000, 10:18:16.979, 
188, 18.92, 10.77, 17.09, 17.96, 0.000, 0.000, 0.000, 10:18:16.979, 
189, 12.03, 10.10, 8.52, 12.11, 0.000, 0.000, 0.000, 10:18:16.991, 
190, 14.59, 9.59, 17.07, 14.85, 0.000, 0.000, 0.000, 10:18:16.991, 
191, 14.16, 11.15, 18.89, 16.98, 0.000, 0.000, 0.000, 10:18:16.992, 
192, 14.75, 13.14, 19.53, 18.74, 0.000, 0.000, 0.000, 10:18:16.992, 
193, 8.31, 4.00, 15.94, 13.06, 0.000, 0.000, 0.000, 10:18:17.006, 
194, 11.94, 8.19, 12.30, 14.21, 0.000, 0.000, 0.000, 10:18:17.006, 
195, 16.38, 18.50, 18.69, 19.46, 0.000, 0.000, 0.000, 10:18:17.021, 
196, 13.67, 11.45, 19.07, 15.19, 0.000, 0.000, 0.000, 10:18:17.022, 
197, 12.50, 7.20, 14.29, 10.25, 0.000, 0.000, 0.000, 10:18:17.023, 
198, 11.89, 13.21, 13.89, 15.47, 0.000, 0.000, 0.000, 10:18:17.023, 
199, 15.12, 13.83, 17.90, 16.52, 0.000, 0.000, 0.000, 10:18:17.036, 
200, 11.32, 8.14, 18.55, 13.23, 0.000, 0.000, 0.000, 10:18:17.036, 
0, 12.29, 11.43, 15.60, 15.20, 0.000, 0.000, 0.000, 10:18:17.037, 
1, 12.54, 8.59, 16.01, 15.98, 0.000, 0.000, 0.000, 10:18:17.058, 
2, 11.65, 13.54, 18.83, 21.55, 0.000, 0.000, 0.000, 10:18:17.058, 
3, 17.10, 8.47, 18.04, 17.69, 0.000, 0.000, 0.000, 10:18:17.071, 
4, 11.57, 10.60, 14.81, 15.97, 0.000, 0.000, 0.000, 10:18:17.071, 
5, 15.55, 6.94, 17.80, 13.71, 0.000, 0.000, 0.000, 10:18:17.072, 
6, 15.11, 12.27, 21.64, 15.88, 0.000, 0.000, 0.000, 10:18:17.073, 
7, 14.02, 11.21, 16.74, 16.07, 0.000, 0.000, 0.000, 10:18:17.082, 
8, 10.82, 9.60, 12.29, 16.66, 0.000, 0.000, 0.000, 10:18:17.082, 
9, 13.27, 11.72, 15.59, 14.02, 0.000, 0.000, 0.000, 10:18:17.097, 
10, 15.17, 13.68, 21.03, 18.94, 0.000, 0.000, 0.000, 10:18:17.097, 
11, 12.92, 10.71, 16.33, 15.55, 0.000, 0.000, 0.000, 10:18:17.097, 
12, 10.02, 10.37, 12.38, 8.13, 0.000, 0.000, 0.000, 10:18:17.097, 
13, 14.68, 10.56, 14.46, 15.60, 0.000, 0.000, 0.000, 10:18:17.112, 
14, 10.92, 12.79, 17.02, 15.66, 0.000, 0.000, 0.000, 10:18:17.112, 
15, 10.57, 7.76, 14.28, 12.11, 0.000, 0.000, 0.000, 10:18:17.127, 
16, 9.36, 6.30, 11.80, 14.65, 0.000, 0.000, 0.000, 10:18:17.128, 
17, 16.33, 11.18, 18.49, 18.56, 0.000, 0.000, 0.000, 10:18:17.128, 
18, 13.73, 13.42, 20.73, 17.36, 0.000, 0.000, 0.000, 10:18:17.129, 
19, 14.34, 11.08, 15.02, 16.58, 0.000, 0.000, 0.000, 10:18:17.142, 
20, 13.13, 8.18, 10.11, 11.74, 0.000, 0.000, 0.000, 10:18:17.143, 
21, 15.59, 12.62, 13.90, 17.23, 0.000, 0.000, 0.000, 10:18:17.172, 
22, 11.76, 10.27, 18.79, 20.01, 0.000, 0.000, 0.000, 10:18:17.173, 
23, 17.10, 9.77, 15.54, 17.60, 0.000, 0.000, 0.000, 10:18:17.175, 
24, 6.19, 8.43, 19.18, 13.44, 0.000, 0.000, 0.000, 10:18:17.175, 
25, 13.22, 12.32, 19.41, 18.27, 0.000, 0.000, 0.000, 10:18:17.176, 
26, 15.22, 14.61, 17.59, 19.35, 0.000, 0.000, 0.000, 10:18:17.176, 
27, 13.49, 10.48, 14.20, 15.72, 0.000, 0.000, 0.000, 10:18:17.177, 
28, 12.05, 7.78, 14.29, 11.84, 0.000, 0.000, 0.000, 10:18:17.177, 
29, 17.26, 12.77, 16.89, 13.80, 0.000, 0.000, 0.000, 10:18:17.187, 
30, 11.95, 14.17, 21.35, 20.17, 0.000, 0.000, 0.000, 10:18:17.187, 
31, 12.25, 10.29, 16.66, 15.83, 0.000, 0.000, 0.000, 10:18:17.202, 
32, 13.94, 6.88, 10.04, 10.17, 0.000, 0.000, 0.000, 10:18:17.202, 
33, 15.47, 15.97, 20.56, 15.02, 0.000, 0.000, 0.000, 10:18:17.217, 
34, 15.02, 14.15, 18.68, 18.68, 0.000, 0.000, 0.000, 10:18:17.218, 
35, 10.54, 11.58, 17.09, 15.00, 0.000, 0.000, 0.000, 10:18:17.218, 
36, 11.88, 5.88, 10.94, 7.56, 0.000, 0.000, 0.000, 10:18:17.219, 
37, 13.58, 15.19, 17.01, 10.76, 0.000, 0.000, 0.000, 10:18:17.232, 
38, 16.65, 16.06, 20.54, 15.11, 0.000, 0.000, 0.000, 10:18:17.232, 
39, 15.98, 11.60, 14.77, 13.19, 0.000, 0.000, 0.000, 10:18:17.247, 
40, 10.30, 6.36, 13.43, 13.39, 0.000, 0.000, 0.000, 10:18:17.247, 
41, 16.41, 14.52, 14.05, 11.55, 0.000, 0.000, 0.000, 10:18:17.248, 
42, 12.62, 14.02, 21.34, 15.19, 0.000, 0.000, 0.000, 10:18:17.248, 
43, 14.66, 10.02, 14.10, 9.99, 0.000, 0.000, 0.000, 10:18:17.262, 
44, 10.38, 10.37, 10.44, 6.30, 0.000, 0.000, 0.000, 10:18:17.262, 
45, 13.75, 8.02, 18.76, 15.89, 0.000, 0.000, 0.000, 10:18:17.277, 
46, 17.23, 17.75, 20.53, 27.00, 0.000, 0.000, 0.000, 10:18:17.277, 
47, 10.69, 11.78, 18.23, 16.71, 0.000, 0.000, 0.000, 10:18:17.278, 
48, 12.65, 7.79, 15.57, 14.77, 0.000, 0.000, 0.000, 10:18:17.278, 
49, 16.50, 7.80, 17.52, 20.26, 0.000, 0.000, 0.000, 10:18:17.292, 
50, 21.12, 16.89, 21.93, 21.93, 0.000, 0.000, 0.000, 10:18:17.293, 
51, 15.46, 12.45, 10.62, 17.19, 0.000, 0.000, 0.000, 10:18:17.308, 
52, 6.88, 7.85, 10.07, 9.05, 0.000, 0.000, 0.000, 10:18:17.309, 
53, 13.24, 11.40, 18.76, 17.47, 0.000, 0.000, 0.000, 10:18:17.309, 
54, 12.99, 12.28, 19.12, 22.53, 0.000, 0.000, 0.000, 10:18:17.309, 
55, 17.27, 9.52, 15.70, 20.87, 0.000, 0.000, 0.000, 10:18:17.322, 
56, 10.71, 10.61, 17.46, 16.87, 0.000, 0.000, 0.000, 10:18:17.322, 
57, 17.53, 15.28, 18.58, 14.64, 0.000, 0.000, 0.000, 10:18:17.338, 
58, 15.40, 10.31, 17.10, 18.29, 0.000, 0.000, 0.000, 10:18:17.338, 
59, 11.05, 11.30, 16.14, 13.50, 0.000, 0.000, 0.000, 10:18:17.339, 
60, 10.07, 5.21, 12.45, 11.52, 0.000, 0.000, 0.000, 10:18:17.340, 
61, 13.75, 11.53, 20.53, 16.37, 0.000, 0.000, 0.000, 10:18:17.351, 
62, 15.31, 16.84, 22.38, 22.21, 0.000, 0.000, 0.000, 10:18:17.352, 
63, 13.59, 8.84, 17.87, 20.11, 0.000, 0.000, 0.000, 10:18:17.366, 
64, 7.56, 5.50, 8.50, 4.34, 0.000, 0.000, 0.000, 10:18:17.367, 
65, 8.21, 9.33, 11.51, 14.68, 0.000, 0.000, 0.000, 10:18:17.367, 
66, 17.65, 16.23, 20.78, 23.99, 0.000, 0.000, 0.000, 10:18:17.368, 
67, 15.66, 11.19, 14.47, 12.90, 0.000, 0.000, 0.000, 10:18:17.381, 
68, 14.88, 7.92, 13.57, 12.62, 0.000, 0.000, 0.000, 10:18:17.381, 
69, 14.52, 15.48, 19.24, 16.49, 0.000, 0.000, 0.000, 10:18:17.397, 
70, 14.85, 13.81, 23.89, 19.56, 0.000, 0.000, 0.000, 10:18:17.397, 
71, 14.73, 11.63, 17.41, 20.01, 0.000, 0.000, 0.000, 10:18:17.398, 
72, 11.38, 7.94, 12.57, 10.13, 0.000, 0.000, 0.000, 10:18:17.398, 
73, 11.12, 10.14, 16.81, 13.24, 0.000, 0.000, 0.000, 10:18:17.417, 
74, 16.23, 14.98, 20.32, 19.98, 0.000, 0.000, 0.000, 10:18:17.418, 
75, 11.49, 9.69, 19.73, 18.00, 0.000, 0.000, 0.000, 10:18:17.426, 
76, 12.57, 6.59, 14.72, 14.95, 0.000, 0.000, 0.000, 10:18:17.426, 
77, 15.51, 12.66, 17.07, 12.91, 0.000, 0.000, 0.000, 10:18:17.427, 
78, 21.00, 13.36, 20.46, 17.71, 0.000, 0.000, 0.000, 10:18:17.427, 
79, 11.66, 9.22, 10.56, 1.93, 0.000, 0.000, 0.000, 10:18:17.445, 
80, 11.72, 9.51, 13.79, 3.84, 0.000, 0.000, 0.000, 10:18:17.446, 
81, 12.99, 9.73, 17.15, 6.53, 0.000, 0.000, 0.000, 10:18:17.471, 
82, 16.86, 13.99, 18.27, 12.97, 0.000, 0.000, 0.000, 10:18:17.473, 
83, 15.01, 12.35, 18.75, 11.12, 0.000, 0.000, 0.000, 10:18:17.475, 
84, 13.58, 8.31, 14.93, 8.62, 0.000, 0.000, 0.000, 10:18:17.476, 
85, 14.59, 11.30, 13.49, 13.60, 0.000, 0.000, 0.000, 10:18:17.476, 
86, 13.76, 16.95, 20.71, 15.32, 0.000, 0.000, 0.000, 10:18:17.477, 
87, 13.27, 7.69, 17.05, 15.60, 0.000, 0.000, 0.000, 10:18:17.477, 
88, 12.24, 4.38, 10.51, 11.13, 0.000, 0.000, 0.000, 10:18:17.477, 
89, 11.11, 11.35, 14.89, 14.06, 0.000, 0.000, 0.000, 10:18:17.487, 
90, 15.49, 14.10, 19.19, 13.00, 0.000, 0.000, 0.000, 10:18:17.488, 
91, 9.46, 12.92, 13.29, 12.03, 0.000, 0.000, 0.000, 10:18:17.502, 
92, 10.28, 9.80, 12.98, 14.30, 0.000, 0.000, 0.000, 10:18:17.503, 
93, 11.09, 6.89, 14.46, 17.63, 0.000, 0.000, 0.000, 10:18:17.517, 
94, 16.76, 15.45, 18.16, 12.82, 0.000, 0.000, 0.000, 10:18:17.518, 
95, 12.45, 12.68, 15.15, 11.90, 0.000, 0.000, 0.000, 10:18:17.520, 
96, 11.07, 7.19, 13.32, 11.46, 0.000, 0.000, 0.000, 10:18:17.520, 
97, 15.10, 12.56, 20.30, 15.32, 0.000, 0.000, 0.000, 10:18:17.532, 
98, 13.72, 17.39, 23.22, 29.87, 0.000, 0.000, 0.000, 10:18:17.532, 
99, 12.74, 9.96, 18.51, 26.82, 0.000, 0.000, 0.000, 10:18:17.547, 
100, 13.89, 8.02, 13.33, 18.80, 0.000, 0.000, 0.000, 10:18:17.547, 
101, 14.11, 9.78, 16.78, 18.69, 0.000, 0.000, 0.000, 10:18:17.555, 
102, 15.70, 15.65, 18.74, 23.93, 0.000, 0.000, 0.000, 10:18:17.555, 
103, 12.74, 13.98, 16.39, 20.11, 0.000, 0.000, 0.000, 10:18:17.562, 
104, 15.94, 11.22, 14.77, 18.67, 0.000, 0.000, 0.000, 10:18:17.562, 
105, 14.24, 9.10, 15.50, 21.40, 0.000, 0.000, 0.000, 10:18:17.577, 
106, 13.39, 12.20, 21.36, 22.77, 0.000, 0.000, 0.000, 10:18:17.577, 
107, 12.01, 10.16, 15.21, 21.28, 0.000, 0.000, 0.000, 10:18:17.578, 
108, 14.42, 4.92, 12.13, 14.62, 0.000, 0.000, 0.000, 10:18:17.578, 
109, 15.42, 13.11, 20.36, 15.75, 0.000, 0.000, 0.000, 10:18:17.593, 
110, 17.54, 15.40, 20.27, 18.14, 0.000, 0.000, 0.000, 10:18:17.593, 
111, 11.55, 11.41, 15.26, 12.38, 0.000, 0.000, 0.000, 10:18:17.608, 
112, 8.81, 2.40, 6.03, 11.30, 0.000, 0.000, 0.000, 10:18:17.608, 
113, 16.19, 12.23, 15.61, 12.51, 0.000, 0.000, 0.000, 10:18:17.609, 
114, 15.94, 16.98, 20.88, 16.54, 0.000, 0.000, 0.000, 10:18:17.609, 
115, 12.50, 14.79, 18.91, 18.05, 0.000, 0.000, 0.000, 10:18:17.622, 
116, 13.85, 9.58, 16.11, 11.44, 0.000, 0.000, 0.000, 10:18:17.622, 
117, 13.88, 11.65, 18.13, 12.43, 0.000, 0.000, 0.000, 10:18:17.638, 
118, 16.68, 16.02, 21.47, 17.38, 0.000, 0.000, 0.000, 10:18:17.638, 
119, 12.66, 9.49, 15.43, 15.41, 0.000, 0.000, 0.000, 10:18:17.639, 
120, 11.07, 8.44, 9.47, 8.59, 0.000, 0.000, 0.000, 10:18:17.639, 
121, 11.93, 10.94, 16.49, 10.81, 0.000, 0.000, 0.000, 10:18:17.657, 
122, 17.56, 15.31, 21.80, 16.79, 0.000, 0.000, 0.000, 10:18:17.658, 
123, 12.62, 11.99, 15.25, 16.15, 0.000, 0.000, 0.000, 10:18:17.667, 
124, 13.14, 8.42, 14.28, 13.27, 0.000, 0.000, 0.000, 10:18:17.667, 
125, 12.13, 8.86, 13.98, 14.56, 0.000, 0.000, 0.000, 10:18:17.670, 
126, 17.85, 9.72, 22.15, 19.00, 0.000, 0.000, 0.000, 10:18:17.671, 
127, 13.59, 11.31, 20.73, 14.31, 0.000, 0.000, 0.000, 10:18:17.681, 
128, 14.84, 9.53, 11.61, 11.35, 0.000, 0.000, 0.000, 10:18:17.682, 
129, 13.82, 10.98, 16.55, 14.09, 0.000, 0.000, 0.000, 10:18:17.696, 
130, 13.34, 9.18, 20.00, 12.83, 0.000, 0.000, 0.000, 10:18:17.697, 
131, 17.18, 15.05, 15.27, 15.05, 0.000, 0.000, 0.000, 10:18:17.697, 
132, 9.65, 8.44, 15.38, 12.66, 0.000, 0.000, 0.000, 10:18:17.697, 
133, 13.46, 10.72, 14.37, 13.23, 0.000, 0.000, 0.000, 10:18:17.711, 
134, 13.85, 13.93, 19.46, 16.44, 0.000, 0.000, 0.000, 10:18:17.711, 
135, 15.22, 13.52, 17.24, 12.12, 0.000, 0.000, 0.000, 10:18:17.727, 
136, 15.76, 10.35, 14.83, 14.55, 0.000, 0.000, 0.000, 10:18:17.727, 
137, 14.65, 12.35, 17.95, 19.23, 0.000, 0.000, 0.000, 10:18:17.727, 
138, 13.52, 13.10, 22.67, 20.65, 0.000, 0.000, 0.000, 10:18:17.728, 
139, 10.13, 11.64, 16.62, 16.45, 0.000, 0.000, 0.000, 10:18:17.743, 
140, 8.47, 8.00, 12.41, 11.14, 0.000, 0.000, 0.000, 10:18:17.744, 
141, 12.29, 11.25, 15.42, 12.77, 0.000, 0.000, 0.000, 10:18:17.757, 
142, 14.16, 10.99, 22.66, 20.92, 0.000, 0.000, 0.000, 10:18:17.757, 
143, 14.02, 12.36, 11.12, 15.26, 0.000, 0.000, 0.000, 10:18:17.758, 
144, 10.10, 7.22, 11.04, 17.02, 0.000, 0.000, 0.000, 10:18:17.758, 
145, 10.28, 11.08, 16.65, 10.10, 0.000, 0.000, 0.000, 10:18:17.771, 
146, 15.26, 13.89, 20.04, 15.95, 0.000, 0.000, 0.000, 10:18:17.772, 
147, 12.06, 11.78, 17.70, 13.59, 0.000, 0.000, 0.000, 10:18:17.786, 
148, 13.10, 7.64, 13.15, 11.72, 0.000, 0.000, 0.000, 10:18:17.787, 
149, 15.39, 11.81, 12.53, 12.41, 0.000, 0.000, 0.000, 10:18:17.787, 
150, 13.96, 13.07, 17.04, 15.59, 0.000, 0.000, 0.000, 10:18:17.788, 
151, 16.15, 14.11, 16.92, 15.17, 0.000, 0.000, 0.000, 10:18:17.802, 
152, 16.64, 8.32, 15.29, 19.76, 0.000, 0.000, 0.000, 10:18:17.803, 
153, 14.32, 13.61, 15.99, 22.60, 0.000, 0.000, 0.000, 10:18:17.817, 
154, 19.85, 16.80, 19.89, 23.05, 0.000, 0.000, 0.000, 10:18:17.818, 
155, 15.83, 12.06, 16.26, 17.30, 0.000, 0.000, 0.000, 10:18:17.820, 
156, 13.51, 8.57, 12.84, 10.65, 0.000, 0.000, 0.000, 10:18:17.820, 
157, 9.40, 12.94, 14.51, 9.04, 0.000, 0.000, 0.000, 10:18:17.832, 
158, 10.56, 13.53, 24.53, 20.60, 0.000, 0.000, 0.000, 10:18:17.833, 
159, 14.11, 9.32, 18.14, 13.85, 0.000, 0.000, 0.000, 10:18:17.853, 
160, 8.60, 1.46, 13.60, 11.51, 0.000, 0.000, 0.000, 10:18:17.854, 
161, 14.11, 9.38, 17.38, 13.30, 0.000, 0.000, 0.000, 10:18:17.855, 
162, 16.66, 13.96, 21.31, 21.81, 0.000, 0.000, 0.000, 10:18:17.856, 
163, 14.49, 12.23, 14.81, 12.31, 0.000, 0.000, 0.000, 10:18:17.862, 
164, 14.23, 8.74, 11.04, 11.11, 0.000, 0.000, 0.000, 10:18:17.862, 
165, 13.33, 14.11, 17.03, 12.91, 0.000, 0.000, 0.000, 10:18:17.881, 
166, 13.55, 13.01, 20.57, 17.55, 0.000, 0.000, 0.000, 10:18:17.882, 
167, 14.43, 7.95, 15.13, 10.59, 0.000, 0.000, 0.000, 10:18:17.882, 
168, 12.06, 7.86, 16.38, 8.29, 0.000, 0.000, 0.000, 10:18:17.883, 
169, 14.13, 9.31, 18.13, 15.26, 0.000, 0.000, 0.000, 10:18:17.898, 
170, 20.29, 15.79, 22.06, 17.54, 0.000, 0.000, 0.000, 10:18:17.899, 
171, 13.79, 9.91, 13.57, 13.23, 0.000, 0.000, 0.000, 10:18:17.907, 
172, 9.50, 7.84, 11.93, 7.19, 0.000, 0.000, 0.000, 10:18:17.908, 
173, 13.25, 11.98, 15.37, 14.48, 0.000, 0.000, 0.000, 10:18:17.910, 
174, 20.93, 16.26, 18.11, 24.44, 0.000, 0.000, 0.000, 10:18:17.910, 
175, 12.21, 11.54, 17.18, 13.94, 0.000, 0.000, 0.000, 10:18:17.922, 
176, 11.63, 7.01, 11.53, 9.97, 0.000, 0.000, 0.000, 10:18:17.922, 
177, 10.24, 8.37, 14.99, 14.79, 0.000, 0.000, 0.000, 10:18:17.937, 
178, 11.42, 11.93, 18.20, 19.20, 0.000, 0.000, 0.000, 10:18:17.938, 
179, 13.75, 11.77, 15.28, 15.46, 0.000, 0.000, 0.000, 10:18:17.940, 
180, 11.41, 7.03, 13.82, 15.24, 0.000, 0.000, 0.000, 10:18:17.942, 
181, 14.59, 11.21, 20.09, 15.14, 0.000, 0.000, 0.000, 10:18:17.955, 
182, 16.91, 14.41, 22.36, 18.58, 0.000, 0.000, 0.000, 10:18:17.956, 
183, 14.11, 12.52, 16.08, 16.51, 0.000, 0.000, 0.000, 10:18:17.967, 
184, 13.02, 10.43, 12.04, 12.72, 0.000, 0.000, 0.000, 10:18:17.967, 
185, 10.11, 7.64, 16.19, 13.63, 0.000, 0.000, 0.000, 10:18:17.968, 
186, 15.89, 12.73, 21.69, 19.30, 0.000, 0.000, 0.000, 10:18:17.969, 
187, 14.62, 12.68, 15.83, 12.20, 0.000, 0.000, 0.000, 10:18:17.981, 
188, 13.64, 8.17, 12.40, 15.08, 0.000, 0.000, 0.000, 10:18:17.982, 
189, 15.59, 16.88, 19.82, 13.20, 0.000, 0.000, 0.000, 10:18:17.996, 
190, 13.23, 9.70, 20.68, 20.76, 0.000, 0.000, 0.000, 10:18:17.996, 
191, 13.96, 12.17, 17.17, 13.09, 0.000, 0.000, 0.000, 10:18:17.997, 
192, 11.20, 6.02, 13.38, 13.14, 0.000, 0.000, 0.000, 10:18:17.997, 
193, 12.34, 10.33, 13.59, 13.68, 0.000, 0.000, 0.000, 10:18:18.011, 
194, 18.45, 8.77, 22.24, 18.05, 0.000, 0.000, 0.000, 10:18:18.011, 
195, 16.96, 12.66, 14.15, 13.60, 0.000, 0.000, 0.000, 10:18:18.026, 
196, 10.05, 12.55, 10.89, 17.56, 0.000, 0.000, 0.000, 10:18:18.026, 
197, 12.61, 9.44, 16.67, 13.02, 0.000, 0.000, 0.000, 10:18:18.042, 
198, 13.51, 15.19, 21.57, 11.31, 0.000, 0.000, 0.000, 10:18:18.042, 
199, 14.31, 11.41, 17.49, 12.19, 0.000, 0.000, 0.000, 10:18:18.042, 
200, 11.84, 7.62, 15.28, 3.95, 0.000, 0.000, 0.000, 10:18:18.042, 
0, 15.86, 8.65, 17.40, 10.96, 0.000, 0.000, 0.000, 10:18:18.043, 
1, 18.21, 9.61, 17.58, 12.89, 0.000, 0.000, 0.000, 10:18:18.055, 
2, 14.16, 12.62, 17.82, 11.98, 0.000, 0.000, 0.000, 10:18:18.056, 
3, 11.15, 9.11, 16.26, 9.03, 0.000, 0.000, 0.000, 10:18:18.072, 
4, 13.32, 9.93, 14.88, 12.11, 0.000, 0.000, 0.000, 10:18:18.072, 
5, 14.39, 16.24, 22.65, 14.96, 0.000, 0.000, 0.000, 10:18:18.075, 
6, 10.31, 13.06, 16.92, 13.82, 0.000, 0.000, 0.000, 10:18:18.075, 
7, 11.66, 8.72, 10.40, 9.97, 0.000, 0.000, 0.000, 10:18:18.087, 
8, 13.76, 12.07, 16.43, 15.01, 0.000, 0.000, 0.000, 10:18:18.087, 
9, 18.35, 15.87, 20.47, 16.96, 0.000, 0.000, 0.000, 10:18:18.101, 
10, 15.71, 12.21, 17.29, 12.14, 0.000, 0.000, 0.000, 10:18:18.102, 
11, 10.86, 6.58, 11.79, 8.89, 0.000, 0.000, 0.000, 10:18:18.102, 
12, 13.46, 8.19, 15.40, 12.40, 0.000, 0.000, 0.000, 10:18:18.102, 
13, 13.91, 13.53, 19.40, 19.20, 0.000, 0.000, 0.000, 10:18:18.115, 
14, 12.74, 11.44, 15.04, 21.11, 0.000, 0.000, 0.000, 10:18:18.115, 
15, 9.30, 7.44, 14.11, 22.88, 0.000, 0.000, 0.000, 10:18:18.130, 
16, 10.54, 10.96, 15.01, 21.22, 0.000, 0.000, 0.000, 10:18:18.130, 
17, 12.67, 16.47, 22.74, 28.93, 0.000, 0.000, 0.000, 10:18:18.131, 
18, 14.35, 14.29, 13.94, 27.73, 0.000, 0.000, 0.000, 10:18:18.131, 
19, 8.54, 6.72, 8.21, 15.43, 0.000, 0.000, 0.000, 10:18:18.145, 
20, 17.73, 10.64, 15.74, 20.26, 0.000, 0.000, 0.000, 10:18:18.145, 
21, 16.11, 13.10, 19.66, 27.84, 0.000, 0.000, 0.000, 10:18:18.160, 
22, 12.34, 13.70, 21.86, 21.19, 0.000, 0.000, 0.000, 10:18:18.161, 
23, 13.16, 9.19, 15.66, 20.32, 0.000, 0.000, 0.000, 10:18:18.161, 
24, 13.97, 10.71, 15.20, 11.60, 0.000, 0.000, 0.000, 10:18:18.161, 
25, 15.52, 15.68, 20.21, 12.90, 0.000, 0.000, 0.000, 10:18:18.176, 
26, 14.08, 9.04, 17.57, 14.64, 0.000, 0.000, 0.000, 10:18:18.176, 
27, 10.98, 6.47, 15.22, 9.76, 0.000, 0.000, 0.000, 10:18:18.191, 
28, 13.35, 7.30, 12.47, 10.89, 0.000, 0.000, 0.000, 10:18:18.192, 
29, 17.09, 13.59, 23.55, 16.81, 0.000, 0.000, 0.000, 10:18:18.199, 
30, 14.64, 9.47, 13.98, 14.73, 0.000, 0.000, 0.000, 10:18:18.199, 
31, 11.42, 7.89, 10.20, 10.58, 0.000, 0.000, 0.000, 10:18:18.207, 
32, 12.00, 11.01, 15.18, 13.55, 0.000, 0.000, 0.000, 10:18:18.207, 
33, 13.24, 10.85, 18.77, 15.39, 0.000, 0.000, 0.000, 10:18:18.222, 
34, 13.49, 11.30, 18.75, 12.80, 0.000, 0.000, 0.000, 10:18:18.223, 
35, 8.96, 8.51, 9.75, 8.05, 0.000, 0.000, 0.000, 10:18:18.236, 
36, 14.31, 13.14, 17.72, 14.28, 0.000, 0.000, 0.000, 10:18:18.237, 
37, 16.73, 14.22, 16.73, 18.30, 0.000, 0.000, 0.000, 10:18:18.237, 
38, 11.80, 10.72, 17.64, 13.51, 0.000, 0.000, 0.000, 10:18:18.238, 
39, 12.66, 9.52, 13.44, 13.31, 0.000, 0.000, 0.000, 10:18:18.252, 
40, 13.09, 9.45, 12.54, 12.70, 0.000, 0.000, 0.000, 10:18:18.253, 
41, 15.83, 14.37, 19.42, 14.80, 0.000, 0.000, 0.000, 10:18:18.254, 
42, 14.94, 13.95, 20.29, 18.13, 0.000, 0.000, 0.000, 10:18:18.254, 
43, 12.29, 5.16, 13.97, 13.81, 0.000, 0.000, 0.000, 10:18:18.267, 
44, 9.99, 14.45, 14.80, 12.24, 0.000, 0.000, 0.000, 10:18:18.267, 
45, 14.41, 14.06, 18.56, 16.12, 0.000, 0.000, 0.000, 10:18:18.282, 
46, 15.94, 14.81, 17.36, 18.85, 0.000, 0.000, 0.000, 10:18:18.282, 
47, 10.69, 5.02, 12.65, 10.62, 0.000, 0.000, 0.000, 10:18:18.283, 
48, 18.35, 11.91, 16.18, 14.78, 0.000, 0.000, 0.000, 10:18:18.283, 
49, 17.00, 13.98, 18.22, 23.14, 0.000, 0.000, 0.000, 10:18:18.297, 
50, 13.98, 12.39, 19.42, 14.55, 0.000, 0.000, 0.000, 10:18:18.297, 
51, 10.72, 8.92, 15.30, 8.26, 0.000, 0.000, 0.000, 10:18:18.312, 
52, 12.90, 13.02, 12.88, 13.30, 0.000, 0.000, 0.000, 10:18:18.312, 
53, 17.53, 16.99, 21.20, 18.99, 0.000, 0.000, 0.000, 10:18:18.313, 
54, 12.90, 13.39, 16.82, 17.96, 0.000, 0.000, 0.000, 10:18:18.313, 
55, 11.06, 7.09, 9.76, 7.11, 0.000, 0.000, 0.000, 10:18:18.328, 
56, 12.24, 9.28, 17.17, 13.82, 0.000, 0.000, 0.000, 10:18:18.329, 
57, 14.44, 14.40, 17.16, 16.29, 0.000, 0.000, 0.000, 10:18:18.342, 
58, 19.96, 10.04, 14.20, 15.17, 0.000, 0.000, 0.000, 10:18:18.343, 
59, 8.30, 4.60, 14.39, 9.29, 0.000, 0.000, 0.000, 10:18:18.343, 
60, 12.34, 8.14, 16.78, 13.79, 0.000, 0.000, 0.000, 10:18:18.344, 
61, 14.02, 9.33, 22.99, 15.81, 0.000, 0.000, 0.000, 10:18:18.357, 
62, 15.56, 10.80, 15.37, 16.81, 0.000, 0.000, 0.000, 10:18:18.357, 
63, 10.29, 8.63, 11.48, 6.35, 0.000, 0.000, 0.000, 10:18:18.371, 
64, 15.58, 8.65, 12.86, 14.91, 0.000, 0.000, 0.000, 10:18:18.372, 
65, 19.58, 12.70, 19.97, 22.85, 0.000, 0.000, 0.000, 10:18:18.373, 
66, 12.57, 8.27, 14.34, 15.05, 0.000, 0.000, 0.000, 10:18:18.374, 
67, 9.68, 3.15, 8.74, 9.60, 0.000, 0.000, 0.000, 10:18:18.387, 
68, 9.91, 11.77, 16.69, 12.63, 0.000, 0.000, 0.000, 10:18:18.387, 
69, 17.80, 17.79, 23.36, 18.15, 0.000, 0.000, 0.000, 10:18:18.403, 
70, 14.55, 13.81, 14.90, 17.86, 0.000, 0.000, 0.000, 10:18:18.403, 
71, 12.25, 5.33, 14.16, 11.99, 0.000, 0.000, 0.000, 10:18:18.404, 
72, 13.92, 13.41, 16.43, 17.99, 0.000, 0.000, 0.000, 10:18:18.405, 
73, 14.84, 10.91, 19.69, 18.85, 0.000, 0.000, 0.000, 10:18:18.416, 
74, 13.29, 11.06, 20.32, 14.86, 0.000, 0.000, 0.000, 10:18:18.417, 
75, 13.16, 11.48, 17.36, 11.08, 0.000, 0.000, 0.000, 10:18:18.431, 
76, 14.19, 13.51, 13.50, 11.81, 0.000, 0.000, 0.000, 10:18:18.431, 
77, 15.26, 16.48, 21.74, 13.03, 0.000, 0.000, 0.000, 10:18:18.432, 
78, 12.61, 13.97, 16.44, 14.52, 0.000, 0.000, 0.000, 10:18:18.432, 
79, 8.93, 7.52, 11.62, 10.79, 0.000, 0.000, 0.000, 10:18:18.446, 
80, 9.39, 9.34, 14.12, 12.00, 0.000, 0.000, 0.000, 10:18:18.446, 
81, 15.64, 14.92, 23.45, 24.20, 0.000, 0.000, 0.000, 10:18:18.461, 
82, 16.71, 11.20, 15.91, 18.25, 0.000, 0.000, 0.000, 10:18:18.461, 
83, 5.81, 7.58, 15.42, 11.71, 0.000, 0.000, 0.000, 10:18:18.462, 
84, 16.05, 10.02, 17.39, 15.98, 0.000, 0.000, 0.000, 10:18:18.462, 
85, 12.76, 12.09, 18.77, 12.40, 0.000, 0.000, 0.000, 10:18:18.477, 
86, 15.33, 9.57, 14.56, 11.14, 0.000, 0.000, 0.000, 10:18:18.477, 
87, 11.49, 12.14, 13.20, 11.49, 0.000, 0.000, 0.000, 10:18:18.492, 
88, 15.28, 10.98, 14.44, 18.02, 0.000, 0.000, 0.000, 10:18:18.492, 
89, 17.10, 15.89, 17.64, 22.50, 0.000, 0.000, 0.000, 10:18:18.492, 
90, 12.13, 7.44, 19.04, 15.72, 0.000, 0.000, 0.000, 10:18:18.492, 
91, 10.52, 7.18, 14.39, 9.59, 0.000, 0.000, 0.000, 10:18:18.508, 
92, 11.75, 7.90, 16.54, 9.60, 0.000, 0.000, 0.000, 10:18:18.508, 
93, 15.93, 13.50, 16.88, 15.29, 0.000, 0.000, 0.000, 10:18:18.522, 
94, 12.67, 10.87, 16.41, 13.86, 0.000, 0.000, 0.000, 10:18:18.523, 
95, 14.30, 8.85, 11.55, 10.05, 0.000, 0.000, 0.000, 10:18:18.525, 
96, 13.92, 10.13, 20.42, 15.42, 0.000, 0.000, 0.000, 10:18:18.525, 
97, 16.11, 16.07, 22.16, 20.07, 0.000, 0.000, 0.000, 10:18:18.537, 
98, 12.78, 7.46, 16.17, 14.23, 0.000, 0.000, 0.000, 10:18:18.538, 
99, 8.44, 7.48, 10.87, 12.37, 0.000, 0.000, 0.000, 10:18:18.552, 
100, 12.66, 7.90, 15.77, 14.54, 0.000, 0.000, 0.000, 10:18:18.553, 
101, 17.59, 16.57, 17.36, 20.87, 0.000, 0.000, 0.000, 10:18:18.554, 
102, 15.71, 11.48, 18.34, 15.71, 0.000, 0.000, 0.000, 10:18:18.554, 
103, 10.34, 7.37, 12.20, 10.19, 0.000, 0.000, 0.000, 10:18:18.567, 
104, 13.06, 9.91, 16.14, 17.33, 0.000, 0.000, 0.000, 10:18:18.568, 
105, 14.54, 13.43, 18.23, 17.43, 0.000, 0.000, 0.000, 10:18:18.582, 
106, 14.13, 12.27, 17.97, 16.90, 0.000, 0.000, 0.000, 10:18:18.582, 
107, 11.20, 9.71, 12.54, 15.66, 0.000, 0.000, 0.000, 10:18:18.583, 
108, 14.94, 11.68, 17.34, 19.71, 0.000, 0.000, 0.000, 10:18:18.584, 
109, 14.27, 12.74, 22.02, 22.41, 0.000, 0.000, 0.000, 10:18:18.597, 
110, 14.80, 11.80, 18.64, 14.05, 0.000, 0.000, 0.000, 10:18:18.598, 
111, 13.95, 7.07, 9.50, 12.49, 0.000, 0.000, 0.000, 10:18:18.612, 
112, 12.35, 10.53, 15.67, 14.12, 0.000, 0.000, 0.000, 10:18:18.612, 
113, 16.25, 13.75, 16.24, 14.81, 0.000, 0.000, 0.000, 10:18:18.613, 
114, 13.16, 12.12, 17.69, 12.58, 0.000, 0.000, 0.000, 10:18:18.613, 
115, 11.06, 5.56, 13.34, 10.25, 0.000, 0.000, 0.000, 10:18:18.627, 
116, 15.37, 9.82, 19.73, 19.14, 0.000, 0.000, 0.000, 10:18:18.627, 
117, 16.02, 16.07, 17.18, 18.18, 0.000, 0.000, 0.000, 10:18:18.642, 
118, 11.36, 11.43, 14.26, 12.83, 0.000, 0.000, 0.000, 10:18:18.643, 
119, 10.28, 8.61, 12.32, 10.36, 0.000, 0.000, 0.000, 10:18:18.644, 
120, 19.14, 9.30, 16.12, 11.02, 0.000, 0.000, 0.000, 10:18:18.645, 
121, 15.13, 16.57, 22.82, 12.85, 0.000, 0.000, 0.000, 10:18:18.657, 
122, 12.14, 7.81, 13.98, 17.11, 0.000, 0.000, 0.000, 10:18:18.658, 
123, 12.35, 9.62, 14.21, 15.77, 0.000, 0.000, 0.000, 10:18:18.672, 
124, 8.74, 12.46, 15.17, 14.97, 0.000, 0.000, 0.000, 10:18:18.672, 
125, 16.46, 16.34, 20.94, 16.48, 0.000, 0.000, 0.000, 10:18:18.674, 
126, 14.53, 10.81, 14.77, 13.27, 0.000, 0.000, 0.000, 10:18:18.675, 
127, 9.17, 14.87, 16.44, 10.13, 0.000, 0.000, 0.000, 10:18:18.687, 
128, 11.77, 13.61, 16.76, 15.93, 0.000, 0.000, 0.000, 10:18:18.687, 
129, 18.48, 16.34, 23.11, 21.92, 0.000, 0.000, 0.000, 10:18:18.701, 
130, 12.79, 6.54, 14.04, 13.81, 0.000, 0.000, 0.000, 10:18:18.702, 
131, 11.07, 6.69, 11.98, 10.81, 0.000, 0.000, 0.000, 10:18:18.703, 
132, 12.25, 12.62, 16.82, 15.40, 0.000, 0.000, 0.000, 10:18:18.704, 
133, 16.37, 12.66, 21.40, 19.98, 0.000, 0.000, 0.000, 10:18:18.717, 
134, 16.07, 11.65, 13.71, 15.65, 0.000, 0.000, 0.000, 10:18:18.717, 
135, 15.08, 4.85, 13.49, 7.06, 0.000, 0.000, 0.000, 10:18:18.731, 
136, 13.49, 9.78, 11.89, 12.81, 0.000, 0.000, 0.000, 10:18:18.732, 
137, 16.54, 14.91, 22.84, 14.02, 0.000, 0.000, 0.000, 10:18:18.733, 
138, 10.65, 10.25, 11.45, 15.76, 0.000, 0.000, 0.000, 10:18:18.734, 
139, 13.28, 5.52, 11.77, 16.17, 0.000, 0.000, 0.000, 10:18:18.746, 
140, 13.82, 12.56, 18.20, 19.35, 0.000, 0.000, 0.000, 10:18:18.747, 
141, 14.85, 16.88, 17.86, 20.05, 0.000, 0.000, 0.000, 10:18:18.761, 
142, 16.38, 11.49, 18.05, 14.11, 0.000, 0.000, 0.000, 10:18:18.762, 
143, 14.11, 11.39, 14.35, 10.07, 0.000, 0.000, 0.000, 10:18:18.762, 
144, 13.59, 12.68, 16.24, 14.39, 0.000, 0.000, 0.000, 10:18:18.763, 
145, 15.72, 11.67, 21.96, 19.01, 0.000, 0.000, 0.000, 10:18:18.776, 
146, 10.37, 6.45, 15.01, 15.03, 0.000, 0.000, 0.000, 10:18:18.777, 
147, 9.39, 6.89, 15.47, 14.66, 0.000, 0.000, 0.000, 10:18:18.794, 
148, 14.06, 12.24, 17.22, 16.58, 0.000, 0.000, 0.000, 10:18:18.795, 
149, 15.07, 17.31, 22.95, 23.73, 0.000, 0.000, 0.000, 10:18:18.796, 
150, 14.64, 8.18, 17.18, 16.26, 0.000, 0.000, 0.000, 10:18:18.797, 
151, 11.12, 5.19, 12.95, 12.76, 0.000, 0.000, 0.000, 10:18:18.808, 
152, 14.51, 4.81, 12.36, 17.96, 0.000, 0.000, 0.000, 10:18:18.809, 
153, 12.34, 15.02, 21.03, 12.83, 0.000, 0.000, 0.000, 10:18:18.824, 
154, 12.26, 10.42, 17.66, 10.22, 0.000, 0.000, 0.000, 10:18:18.825, 
155, 11.77, 8.24, 12.51, 7.16, 0.000, 0.000, 0.000, 10:18:18.826, 
156, 14.25, 9.27, 11.30, 7.23, 0.000, 0.000, 0.000, 10:18:18.827, 
157, 12.39, 13.09, 18.86, 19.81, 0.000, 0.000, 0.000, 10:18:18.840, 
158, 15.06, 13.14, 17.49, 13.07, 0.000, 0.000, 0.000, 10:18:18.841, 
159, 9.62, 7.48, 13.23, 12.09, 0.000, 0.000, 0.000, 10:18:18.857, 
160, 11.90, 10.58, 16.28, 12.26, 0.000, 0.000, 0.000, 10:18:18.858, 
161, 20.34, 13.79, 21.36, 16.48, 0.000, 0.000, 0.000, 10:18:18.859, 
162, 13.80, 11.10, 16.09, 12.26, 0.000, 0.000, 0.000, 10:18:18.859, 
163, 11.16, 7.39, 13.91, 7.16, 0.000, 0.000, 0.000, 10:18:18.871, 
164, 12.11, 11.89, 15.65, 11.18, 0.000, 0.000, 0.000, 10:18:18.872, 
165, 13.88, 17.21, 19.67, 13.55, 0.000, 0.000, 0.000, 10:18:18.881, 
166, 16.19, 14.10, 17.47, 16.62, 0.000, 0.000, 0.000, 10:18:18.881, 
167, 13.67, 6.91, 17.14, 7.64, 0.000, 0.000, 0.000, 10:18:18.882, 
168, 9.87, 9.48, 15.24, 13.97, 0.000, 0.000, 0.000, 10:18:18.882, 
169, 16.73, 12.78, 20.74, 18.40, 0.000, 0.000, 0.000, 10:18:18.896, 
170, 12.68, 7.52, 13.02, 13.85, 0.000, 0.000, 0.000, 10:18:18.896, 
171, 11.64, 3.32, 12.91, 9.78, 0.000, 0.000, 0.000, 10:18:18.911, 
172, 14.95, 11.77, 15.37, 14.83, 0.000, 0.000, 0.000, 10:18:18.911, 
173, 14.48, 14.83, 18.25, 15.23, 0.000, 0.000, 0.000, 10:18:18.911, 
174, 15.62, 10.89, 22.67, 12.12, 0.000, 0.000, 0.000, 10:18:18.911, 
175, 9.46, 9.54, 11.59, 13.89, 0.000, 0.000, 0.000, 10:18:18.926, 
176, 14.88, 15.02, 18.81, 13.80, 0.000, 0.000, 0.000, 10:18:18.926, 
177, 16.45, 17.34, 22.07, 16.79, 0.000, 0.000, 0.000, 10:18:18.941, 
178, 11.08, 11.24, 16.40, 20.37, 0.000, 0.000, 0.000, 10:18:18.941, 
179, 10.27, 4.99, 14.63, 20.84, 0.000, 0.000, 0.000, 10:18:18.942, 
180, 10.69, 10.10, 15.72, 23.43, 0.000, 0.000, 0.000, 10:18:18.942, 
181, 19.30, 14.58, 17.46, 17.64, 0.000, 0.000, 0.000, 10:18:18.956, 
182, 10.87, 8.81, 16.23, 7.99, 0.000, 0.000, 0.000, 10:18:18.956, 
183, 9.48, 9.10, 12.44, 8.06, 0.000, 0.000, 0.000, 10:18:18.972, 
184, 17.48, 12.02, 19.13, 12.77, 0.000, 0.000, 0.000, 10:18:18.972, 
185, 16.25, 14.22, 17.97, 15.02, 0.000, 0.000, 0.000, 10:18:18.972, 
186, 15.56, 8.10, 14.25, 13.11, 0.000, 0.000, 0.000, 10:18:18.972, 
187, 13.10, 6.94, 13.61, 10.83, 0.000, 0.000, 0.000, 10:18:18.986, 
188, 14.36, 10.20, 16.73, 15.13, 0.000, 0.000, 0.000, 10:18:18.986, 
189, 13.51, 17.29, 19.74, 19.17, 0.000, 0.000, 0.000, 10:18:19.002, 
190, 15.65, 10.53, 13.45, 13.75, 0.000, 0.000, 0.000, 10:18:19.002, 
191, 11.77, 7.01, 16.57, 14.89, 0.000, 0.000, 0.000, 10:18:19.003, 
192, 16.18, 14.41, 14.27, 22.75, 0.000, 0.000, 0.000, 10:18:19.003, 
193, 14.76, 14.44, 17.99, 17.67, 0.000, 0.000, 0.000, 10:18:19.031, 
194, 10.22, 12.90, 13.86, 22.13, 0.000, 0.000, 0.000, 10:18:19.031, 
195, 7.66, 10.52, 14.57, 22.12, 0.000, 0.000, 0.000, 10:18:19.032, 
196, 13.00, 11.97, 19.91, 17.15, 0.000, 0.000, 0.000, 10:18:19.032, 
197, 14.65, 14.56, 21.54, 20.97, 0.000, 0.000, 0.000, 10:18:19.032, 
198, 15.51, 9.89, 16.74, 13.03, 0.000, 0.000, 0.000, 10:18:19.032, 
199, 12.55, 6.16, 10.60, 20.66, 0.000, 0.000, 0.000, 10:18:19.045, 
200, 9.20, 9.60, 20.93, 24.39, 0.000, 0.000, 0.000, 10:18:19.046, 
0, 14.99, 13.05, 17.34, 22.84, 0.000, 0.000, 0.000, 10:18:19.046, 
1, 19.23, 11.78, 13.86, 18.06, 0.000, 0.000, 0.000, 10:18:19.061, 
2, 7.81, 9.55, 10.33, 12.33, 0.000, 0.000, 0.000, 10:18:19.061, 
3, 16.92, 11.61, 15.89, 18.50, 0.000, 0.000, 0.000, 10:18:19.076, 
4, 16.20, 14.28, 19.86, 22.94, 0.000, 0.000, 0.000, 10:18:19.076, 
5, 12.27, 11.04, 21.32, 13.13, 0.000, 0.000, 0.000, 10:18:19.076, 
6, 11.73, 8.76, 13.23, 12.21, 0.000, 0.000, 0.000, 10:18:19.076, 
7, 16.29, 10.70, 18.42, 11.08, 0.000, 0.000, 0.000, 10:18:19.091, 
8, 17.77, 12.36, 17.07, 10.18, 0.000, 0.000, 0.000, 10:18:19.091, 
9, 14.54, 10.11, 14.25, 7.53, 0.000, 0.000, 0.000, 10:18:19.106, 
10, 11.54, 7.69, 11.65, 4.56, 0.000, 0.000, 0.000, 10:18:19.106, 
11, 13.48, 13.61, 16.46, 12.84, 0.000, 0.000, 0.000, 10:18:19.106, 
12, 19.22, 13.35, 19.56, 14.20, 0.000, 0.000, 0.000, 10:18:19.106, 
