%OpenBCI Raw EEG Data
%
%Sample Rate = 200.0 Hz
%First Column = SampleIndex
%Last Column = Timestamp 
%Other Columns = EEG data in microvolts followed by Accel Data (in G) interleaved with Aux Data
0, 10.07, 9.12, 12.90, 10.27, 0.000, 0.000, 0.000, 10:20:27.236, 7
1, 18.11, 15.42, 21.28, 21.23, 0.000, 0.000, 0.000, 10:20:27.247, 7
2, 15.96, 15.80, 21.40, 24.47, 0.000, 0.000, 0.000, 10:20:27.251, 7
3, 14.22, 13.99, 17.83, 14.89, 0.000, 0.000, 0.000, 10:20:27.256, 7
4, 7.82, 11.09, 16.23, 10.76, 0.000, 0.000, 0.000, 10:20:27.259, 7
5, 19.34, 11.67, 21.14, 17.19, 0.000, 0.000, 0.000, 10:20:27.260, 7
6, 17.21, 18.25, 19.48, 17.21, 0.000, 0.000, 0.000, 10:20:27.262, 7
7, 12.47, 13.16, 18.26, 14.98, 0.000, 0.000, 0.000, 10:20:27.271, 7
8, 10.86, 7.63, 19.10, 13.23, 0.000, 0.000, 0.000, 10:20:27.272, 7
9, 13.94, 10.80, 13.14, 19.35, 0.000, 0.000, 0.000, 10:20:27.289, 7
10, 16.62, 13.63, 22.83, 20.36, 0.000, 0.000, 0.000, 10:20:27.290, 7
11, 15.32, 5.38, 15.91, 9.97, 0.000, 0.000, 0.000, 10:20:27.293, 7
12, 14.12, 9.32, 10.98, 15.20, 0.000, 0.000, 0.000, 10:20:27.294, 7
13, 11.24, 12.34, 19.77, 14.12, 0.000, 0.000, 0.000, 10:20:27.302, 7
14, 16.41, 16.15, 17.58, 20.37, 0.000, 0.000, 0.000, 10:20:27.304, 7
15, 9.19, 11.24, 14.05, 10.99, 0.000, 0.000, 0.000, 10:20:27.316, 7
16, 13.99, 9.70, 13.03, 11.45, 0.000, 0.000, 0.000, 10:20:27.317, 7
17, 17.08, 18.50, 22.23, 17.72, 0.000, 0.000, 0.000, 10:20:27.318, 7
18, 13.32, 15.76, 18.13, 17.58, 0.000, 0.000, 0.000, 10:20:27.319, 7
19, 12.49, 9.01, 15.84, 16.56, 0.000, 0.000, 0.000, 10:20:27.331, 7
20, 13.77, 9.25, 14.66, 14.00, 0.000, 0.000, 0.000, 10:20:27.331, 7
21, 14.90, 15.25, 14.34, 18.95, 0.000, 0.000, 0.000, 10:20:27.345, 7
22, 13.03, 12.75, 17.73, 15.57, 0.000, 0.000, 0.000, 10:20:27.348, 7
23, 14.97, 8.58, 12.14, 11.53, 0.000, 0.000, 0.000, 10:20:27.349, 7
24, 8.21, 8.87, 13.73, 14.08, 0.000, 0.000, 0.000, 10:20:27.349, 7
25, 15.18, 13.73, 15.80, 18.69, 0.000, 0.000, 0.000, 10:20:27.362, 7
26, 15.51, 13.36, 16.08, 16.89, 0.000, 0.000, 0.000, 10:20:27.362, 7
27, 12.90, 12.03, 12.86, 16.08, 0.000, 0.000, 0.000, 10:20:27.375, 7
28, 15.55, 13.08, 12.48, 12.40, 0.000, 0.000, 0.000, 10:20:27.376, 7
29, 17.61, 19.14, 17.15, 18.65, 0.000, 0.000, 0.000, 10:20:27.377, 7
30, 15.88, 14.03, 17.43, 17.56, 0.000, 0.000, 0.000, 10:20:27.379, 7
31, 12.13, 13.41, 16.95, 14.02, 0.000, 0.000, 0.000, 10:20:27.405, 7
32, 12.44, 9.33, 16.91, 16.22, 0.000, 0.000, 0.000, 10:20:27.406, 7
33, 9.42, 11.87, 15.47, 12.41, 0.000, 0.000, 0.000, 10:20:27.406, 7
34, 14.15, 11.87, 20.64, 15.85, 0.000, 0.000, 0.000, 10:20:27.408, 7
35, 10.47, 10.13, 14.94, 15.69, 0.000, 0.000, 0.000, 10:20:27.408, 7
36, 9.48, 12.19, 13.56, 13.63, 0.000, 0.000, 0.000, 10:20:27.410, 7
37, 16.50, 16.11, 18.88, 14.24, 0.000, 0.000, 0.000, 10:20:27.421, 7
38, 13.42, 14.99, 19.31, 18.49, 0.000, 0.000, 0.000, 10:20:27.422, 7
39, 14.19, 9.04, 14.74, 14.06, 0.000, 0.000, 0.000, 10:20:27.436, 7
40, 12.78, 10.58, 11.82, 14.13, 0.000, 0.000, 0.000, 10:20:27.437, 7
41, 14.97, 12.51, 18.38, 15.54, 0.000, 0.000, 0.000, 10:20:27.437, 7
42, 17.51, 16.46, 19.35, 20.59, 0.000, 0.000, 0.000, 10:20:27.437, 7
43, 9.95, 9.76, 16.79, 12.07, 0.000, 0.000, 0.000, 10:20:27.451, 7
44, 14.08, 10.77, 15.65, 11.93, 0.000, 0.000, 0.000, 10:20:27.452, 7
45, 18.76, 14.78, 19.61, 17.18, 0.000, 0.000, 0.000, 10:20:27.467, 7
46, 16.52, 17.51, 18.83, 17.62, 0.000, 0.000, 0.000, 10:20:27.467, 7
47, 10.23, 5.37, 10.09, 10.11, 0.000, 0.000, 0.000, 10:20:27.468, 7
48, 11.83, 9.72, 12.76, 13.00, 0.000, 0.000, 0.000, 10:20:27.468, 7
49, 14.15, 10.91, 18.27, 16.84, 0.000, 0.000, 0.000, 10:20:27.481, 7
50, 15.30, 13.66, 16.40, 18.21, 0.000, 0.000, 0.000, 10:20:27.481, 7
51, 13.89, 7.89, 13.15, 12.69, 0.000, 0.000, 0.000, 10:20:27.496, 7
52, 8.90, 10.66, 9.48, 11.04, 0.000, 0.000, 0.000, 10:20:27.499, 7
53, 16.80, 17.21, 20.55, 15.59, 0.000, 0.000, 0.000, 10:20:27.499, 7
54, 18.79, 14.66, 20.02, 15.01, 0.000, 0.000, 0.000, 10:20:27.499, 7
55, 15.03, 9.64, 14.10, 17.20, 0.000, 0.000, 0.000, 10:20:27.511, 7
56, 11.65, 12.08, 19.58, 11.92, 0.000, 0.000, 0.000, 10:20:27.513, 7
57, 16.55, 12.71, 18.58, 15.15, 0.000, 0.000, 0.000, 10:20:27.526, 7
58, 12.62, 12.17, 17.81, 15.43, 0.000, 0.000, 0.000, 10:20:27.526, 7
59, 12.68, 12.44, 15.39, 16.23, 0.000, 0.000, 0.000, 10:20:27.527, 7
60, 7.05, 11.18, 11.91, 11.17, 0.000, 0.000, 0.000, 10:20:27.528, 7
61, 14.15, 12.78, 15.77, 17.35, 0.000, 0.000, 0.000, 10:20:27.541, 7
62, 19.75, 13.36, 18.97, 18.49, 0.000, 0.000, 0.000, 10:20:27.542, 7
63, 10.84, 9.43, 15.69, 12.28, 0.000, 0.000, 0.000, 10:20:27.556, 7
64, 13.82, 9.70, 12.83, 12.64, 0.000, 0.000, 0.000, 10:20:27.556, 7
65, 12.71, 16.45, 22.22, 15.75, 0.000, 0.000, 0.000, 10:20:27.570, 7
66, 16.36, 17.49, 16.34, 21.46, 0.000, 0.000, 0.000, 10:20:27.571, 7
67, 11.01, 6.79, 13.61, 12.64, 0.000, 0.000, 0.000, 10:20:27.571, 7
68, 12.53, 7.84, 10.36, 9.81, 0.000, 0.000, 0.000, 10:20:27.571, 7
69, 16.23, 16.53, 19.20, 17.46, 0.000, 0.000, 0.000, 10:20:27.586, 7
70, 17.60, 13.65, 20.27, 17.78, 0.000, 0.000, 0.000, 10:20:27.586, 7
71, 15.03, 8.88, 17.78, 14.10, 0.000, 0.000, 0.000, 10:20:27.586, 7
72, 7.43, 8.86, 8.92, 11.16, 0.000, 0.000, 0.000, 10:20:27.587, 7
73, 12.26, 14.58, 17.50, 15.15, 0.000, 0.000, 0.000, 10:20:27.602, 7
74, 19.34, 16.31, 20.47, 17.91, 0.000, 0.000, 0.000, 10:20:27.604, 7
75, 15.49, 8.96, 14.75, 12.88, 0.000, 0.000, 0.000, 10:20:27.616, 7
76, 12.97, 8.31, 13.09, 13.19, 0.000, 0.000, 0.000, 10:20:27.616, 7
77, 16.45, 16.63, 18.96, 16.01, 0.000, 0.000, 0.000, 10:20:27.617, 7
78, 11.89, 15.76, 19.45, 20.01, 0.000, 0.000, 0.000, 10:20:27.618, 7
79, 11.50, 7.23, 15.95, 15.12, 0.000, 0.000, 0.000, 10:20:27.631, 7
80, 14.66, 14.53, 14.74, 13.52, 0.000, 0.000, 0.000, 10:20:27.631, 7
81, 15.07, 14.40, 18.97, 16.01, 0.000, 0.000, 0.000, 10:20:27.646, 7
82, 12.44, 11.56, 20.26, 22.16, 0.000, 0.000, 0.000, 10:20:27.648, 7
83, 12.90, 10.68, 14.58, 13.17, 0.000, 0.000, 0.000, 10:20:27.648, 7
84, 9.64, 12.64, 14.08, 12.46, 0.000, 0.000, 0.000, 10:20:27.649, 7
85, 16.31, 11.88, 18.85, 15.85, 0.000, 0.000, 0.000, 10:20:27.662, 7
86, 16.25, 19.96, 19.09, 19.90, 0.000, 0.000, 0.000, 10:20:27.663, 7
87, 13.31, 9.01, 15.91, 13.79, 0.000, 0.000, 0.000, 10:20:27.675, 7
88, 11.17, 5.38, 9.04, 8.22, 0.000, 0.000, 0.000, 10:20:27.676, 7
89, 12.59, 16.23, 14.31, 15.69, 0.000, 0.000, 0.000, 10:20:27.677, 7
90, 13.82, 11.25, 19.10, 20.18, 0.000, 0.000, 0.000, 10:20:27.677, 7
91, 11.43, 13.59, 13.22, 10.61, 0.000, 0.000, 0.000, 10:20:27.705, 7
92, 10.18, 10.29, 13.33, 15.54, 0.000, 0.000, 0.000, 10:20:27.706, 7
93, 13.57, 14.92, 19.85, 18.38, 0.000, 0.000, 0.000, 10:20:27.710, 7
94, 14.57, 16.28, 19.92, 15.86, 0.000, 0.000, 0.000, 10:20:27.710, 7
95, 12.52, 11.78, 14.43, 14.80, 0.000, 0.000, 0.000, 10:20:27.711, 7
96, 14.12, 8.60, 16.75, 12.48, 0.000, 0.000, 0.000, 10:20:27.713, 7
97, 13.07, 13.52, 16.50, 16.07, 0.000, 0.000, 0.000, 10:20:27.720, 7
98, 17.18, 17.97, 20.60, 19.29, 0.000, 0.000, 0.000, 10:20:27.721, 7
99, 12.52, 9.33, 12.44, 14.73, 0.000, 0.000, 0.000, 10:20:27.737, 7
100, 9.37, 4.63, 11.60, 14.91, 0.000, 0.000, 0.000, 10:20:27.738, 7
101, 14.92, 16.26, 18.33, 15.96, 0.000, 0.000, 0.000, 10:20:27.752, 7
102, 16.27, 16.90, 19.95, 18.44, 0.000, 0.000, 0.000, 10:20:27.752, 7
103, 9.94, 9.59, 13.77, 8.98, 0.000, 0.000, 0.000, 10:20:27.759, 7
104, 11.47, 9.20, 14.88, 12.66, 0.000, 0.000, 0.000, 10:20:27.760, 7
105, 12.19, 12.22, 21.64, 15.73, 0.000, 0.000, 0.000, 10:20:27.767, 7
106, 17.14, 13.92, 17.19, 14.13, 0.000, 0.000, 0.000, 10:20:27.767, 7
107, 16.61, 8.70, 13.05, 9.76, 0.000, 0.000, 0.000, 10:20:27.768, 7
108, 11.10, 10.05, 15.52, 16.92, 0.000, 0.000, 0.000, 10:20:27.768, 7
109, 11.99, 14.72, 19.67, 20.35, 0.000, 0.000, 0.000, 10:20:27.781, 7
110, 14.59, 14.02, 17.22, 18.54, 0.000, 0.000, 0.000, 10:20:27.782, 7
111, 13.48, 14.11, 10.82, 15.79, 0.000, 0.000, 0.000, 10:20:27.796, 7
112, 10.31, 7.86, 6.52, 7.00, 0.000, 0.000, 0.000, 10:20:27.797, 7
113, 19.57, 14.54, 19.10, 18.27, 0.000, 0.000, 0.000, 10:20:27.797, 7
114, 15.49, 9.52, 17.38, 17.00, 0.000, 0.000, 0.000, 10:20:27.798, 7
115, 11.54, 12.68, 16.51, 14.62, 0.000, 0.000, 0.000, 10:20:27.811, 7
116, 6.81, 7.92, 17.03, 15.35, 0.000, 0.000, 0.000, 10:20:27.813, 7
117, 14.48, 12.95, 18.56, 17.67, 0.000, 0.000, 0.000, 10:20:27.827, 7
118, 15.00, 17.27, 22.53, 20.65, 0.000, 0.000, 0.000, 10:20:27.829, 7
119, 13.00, 11.33, 15.96, 11.86, 0.000, 0.000, 0.000, 10:20:27.833, 7
120, 10.50, 7.60, 17.09, 11.11, 0.000, 0.000, 0.000, 10:20:27.833, 7
121, 16.45, 11.06, 18.78, 17.15, 0.000, 0.000, 0.000, 10:20:27.844, 7
122, 15.31, 12.86, 18.75, 17.51, 0.000, 0.000, 0.000, 10:20:27.844, 7
123, 14.29, 13.13, 11.27, 13.73, 0.000, 0.000, 0.000, 10:20:27.856, 7
124, 11.00, 9.66, 14.05, 14.37, 0.000, 0.000, 0.000, 10:20:27.857, 7
125, 14.28, 10.45, 17.42, 18.29, 0.000, 0.000, 0.000, 10:20:27.858, 7
126, 17.36, 18.79, 18.58, 20.27, 0.000, 0.000, 0.000, 10:20:27.862, 7
127, 14.48, 10.91, 12.82, 15.18, 0.000, 0.000, 0.000, 10:20:27.871, 7
128, 8.44, 12.47, 14.21, 13.87, 0.000, 0.000, 0.000, 10:20:27.871, 7
129, 14.69, 14.48, 15.96, 15.05, 0.000, 0.000, 0.000, 10:20:27.886, 7
130, 14.64, 18.02, 18.65, 16.67, 0.000, 0.000, 0.000, 10:20:27.886, 7
131, 15.31, 6.21, 13.49, 12.01, 0.000, 0.000, 0.000, 10:20:27.887, 7
132, 7.80, 10.53, 12.52, 16.52, 0.000, 0.000, 0.000, 10:20:27.887, 7
133, 15.55, 12.01, 20.03, 21.45, 0.000, 0.000, 0.000, 10:20:27.901, 7
134, 14.42, 16.50, 23.04, 23.33, 0.000, 0.000, 0.000, 10:20:27.901, 7
135, 13.11, 9.70, 14.69, 12.19, 0.000, 0.000, 0.000, 10:20:27.915, 7
136, 14.10, 9.69, 14.42, 11.25, 0.000, 0.000, 0.000, 10:20:27.916, 7
137, 17.53, 18.73, 19.33, 16.58, 0.000, 0.000, 0.000, 10:20:27.916, 7
138, 13.92, 15.35, 17.90, 16.92, 0.000, 0.000, 0.000, 10:20:27.917, 7
139, 13.01, 11.59, 14.84, 17.44, 0.000, 0.000, 0.000, 10:20:27.931, 7
140, 13.15, 8.00, 14.11, 11.77, 0.000, 0.000, 0.000, 10:20:27.931, 7
141, 18.33, 11.53, 16.26, 16.68, 0.000, 0.000, 0.000, 10:20:27.947, 7
142, 15.78, 10.00, 19.15, 18.01, 0.000, 0.000, 0.000, 10:20:27.948, 7
143, 12.40, 10.57, 12.44, 10.32, 0.000, 0.000, 0.000, 10:20:27.948, 7
144, 7.75, 6.49, 12.44, 12.35, 0.000, 0.000, 0.000, 10:20:27.948, 7
145, 16.53, 14.90, 17.22, 18.49, 0.000, 0.000, 0.000, 10:20:27.961, 7
146, 12.35, 18.46, 19.54, 16.03, 0.000, 0.000, 0.000, 10:20:27.962, 7
147, 15.85, 9.12, 11.43, 13.66, 0.000, 0.000, 0.000, 10:20:27.976, 7
148, 9.12, 5.42, 13.73, 9.94, 0.000, 0.000, 0.000, 10:20:27.977, 7
149, 13.23, 14.02, 17.04, 16.68, 0.000, 0.000, 0.000, 10:20:27.977, 7
150, 17.03, 13.85, 19.92, 17.61, 0.000, 0.000, 0.000, 10:20:27.978, 7
151, 12.93, 11.92, 20.57, 13.28, 0.000, 0.000, 0.000, 10:20:27.991, 7
152, 15.23, 7.24, 11.40, 11.62, 0.000, 0.000, 0.000, 10:20:27.992, 7
153, 13.54, 12.97, 21.56, 18.46, 0.000, 0.000, 0.000, 10:20:28.005, 7
154, 18.92, 18.03, 18.50, 18.32, 0.000, 0.000, 0.000, 10:20:28.006, 7
155, 15.04, 9.61, 12.28, 14.64, 0.000, 0.000, 0.000, 10:20:28.006, 7
156, 11.03, 6.48, 15.17, 14.03, 0.000, 0.000, 0.000, 10:20:28.006, 7
157, 14.97, 12.52, 22.16, 20.30, 0.000, 0.000, 0.000, 10:20:28.020, 7
158, 16.42, 17.72, 22.42, 18.74, 0.000, 0.000, 0.000, 10:20:28.021, 7
159, 13.61, 9.97, 15.27, 12.03, 0.000, 0.000, 0.000, 10:20:28.035, 7
160, 13.14, 10.02, 12.02, 12.36, 0.000, 0.000, 0.000, 10:20:28.035, 7
161, 19.73, 17.92, 17.08, 17.15, 0.000, 0.000, 0.000, 10:20:28.042, 7
162, 17.09, 17.17, 19.13, 21.55, 0.000, 0.000, 0.000, 10:20:28.043, 7
163, 14.42, 13.76, 17.38, 14.65, 0.000, 0.000, 0.000, 10:20:28.050, 7
164, 8.26, 7.09, 10.76, 12.83, 0.000, 0.000, 0.000, 10:20:28.050, 7
165, 17.03, 13.80, 21.65, 20.03, 0.000, 0.000, 0.000, 10:20:28.065, 7
166, 10.96, 16.15, 20.66, 13.05, 0.000, 0.000, 0.000, 10:20:28.066, 7
167, 13.15, 11.16, 12.99, 13.11, 0.000, 0.000, 0.000, 10:20:28.066, 7
168, 9.23, 9.29, 13.56, 10.51, 0.000, 0.000, 0.000, 10:20:28.066, 7
169, 14.82, 14.37, 18.39, 17.13, 0.000, 0.000, 0.000, 10:20:28.080, 7
170, 18.54, 16.72, 20.80, 19.87, 0.000, 0.000, 0.000, 10:20:28.081, 7
171, 8.60, 13.18, 15.06, 9.86, 0.000, 0.000, 0.000, 10:20:28.097, 7
172, 10.18, 9.57, 13.96, 12.70, 0.000, 0.000, 0.000, 10:20:28.097, 7
173, 14.85, 12.37, 17.07, 15.94, 0.000, 0.000, 0.000, 10:20:28.097, 7
174, 13.10, 11.74, 18.60, 15.77, 0.000, 0.000, 0.000, 10:20:28.097, 7
175, 15.74, 9.69, 12.34, 15.03, 0.000, 0.000, 0.000, 10:20:28.112, 7
176, 12.05, 11.10, 11.42, 11.06, 0.000, 0.000, 0.000, 10:20:28.113, 7
177, 14.47, 13.02, 19.23, 23.54, 0.000, 0.000, 0.000, 10:20:28.127, 7
178, 20.20, 14.16, 20.48, 21.11, 0.000, 0.000, 0.000, 10:20:28.127, 7
179, 11.70, 10.77, 16.58, 14.78, 0.000, 0.000, 0.000, 10:20:28.129, 7
180, 10.63, 8.78, 11.50, 11.67, 0.000, 0.000, 0.000, 10:20:28.130, 7
181, 15.90, 14.90, 18.42, 15.72, 0.000, 0.000, 0.000, 10:20:28.141, 7
182, 14.80, 14.26, 21.27, 17.40, 0.000, 0.000, 0.000, 10:20:28.142, 7
183, 12.01, 12.50, 14.61, 12.12, 0.000, 0.000, 0.000, 10:20:28.156, 7
184, 9.58, 12.78, 13.27, 12.85, 0.000, 0.000, 0.000, 10:20:28.156, 7
185, 14.84, 13.94, 20.15, 15.35, 0.000, 0.000, 0.000, 10:20:28.156, 7
186, 21.87, 12.36, 18.07, 16.07, 0.000, 0.000, 0.000, 10:20:28.156, 7
187, 15.03, 9.67, 11.39, 15.82, 0.000, 0.000, 0.000, 10:20:28.171, 7
188, 11.15, 7.56, 10.82, 8.38, 0.000, 0.000, 0.000, 10:20:28.171, 7
189, 10.40, 8.78, 17.41, 14.23, 0.000, 0.000, 0.000, 10:20:28.186, 7
190, 12.07, 12.61, 20.02, 18.47, 0.000, 0.000, 0.000, 10:20:28.186, 7
191, 13.60, 13.50, 17.27, 12.45, 0.000, 0.000, 0.000, 10:20:28.186, 7
192, 14.23, 10.29, 13.80, 13.37, 0.000, 0.000, 0.000, 10:20:28.186, 7
193, 17.90, 11.62, 13.92, 17.22, 0.000, 0.000, 0.000, 10:20:28.201, 7
194, 13.97, 15.80, 19.10, 17.41, 0.000, 0.000, 0.000, 10:20:28.201, 7
195, 13.89, 11.47, 13.90, 17.37, 0.000, 0.000, 0.000, 10:20:28.216, 7
196, 7.13, 8.99, 13.57, 11.31, 0.000, 0.000, 0.000, 10:20:28.216, 7
197, 13.47, 16.37, 15.37, 13.77, 0.000, 0.000, 0.000, 10:20:28.217, 7
198, 17.40, 11.39, 21.80, 18.48, 0.000, 0.000, 0.000, 10:20:28.218, 7
199, 14.17, 9.49, 13.82, 12.59, 0.000, 0.000, 0.000, 10:20:28.231, 7
200, 10.54, 9.42, 12.27, 11.46, 0.000, 0.000, 0.000, 10:20:28.232, 7
0, 16.97, 13.89, 15.95, 17.27, 0.000, 0.000, 0.000, 10:20:28.232, 7
1, 14.87, 16.47, 17.90, 16.70, 0.000, 0.000, 0.000, 10:20:28.246, 7
2, 15.42, 9.94, 15.55, 13.98, 0.000, 0.000, 0.000, 10:20:28.247, 7
3, 12.77, 10.54, 12.61, 13.34, 0.000, 0.000, 0.000, 10:20:28.261, 7
4, 12.88, 16.08, 20.34, 16.45, 0.000, 0.000, 0.000, 10:20:28.263, 7
5, 12.95, 13.92, 20.86, 19.08, 0.000, 0.000, 0.000, 10:20:28.263, 7
6, 10.09, 16.73, 15.25, 14.28, 0.000, 0.000, 0.000, 10:20:28.264, 7
7, 13.20, 9.18, 16.78, 11.61, 0.000, 0.000, 0.000, 10:20:28.277, 7
8, 16.12, 10.01, 20.61, 14.85, 0.000, 0.000, 0.000, 10:20:28.278, 7
9, 16.05, 15.48, 16.38, 18.56, 0.000, 0.000, 0.000, 10:20:28.291, 7
10, 9.31, 10.06, 15.06, 15.00, 0.000, 0.000, 0.000, 10:20:28.291, 7
11, 9.69, 5.63, 14.62, 10.85, 0.000, 0.000, 0.000, 10:20:28.327, 7
12, 16.00, 13.12, 16.34, 17.49, 0.000, 0.000, 0.000, 10:20:28.327, 7
13, 18.59, 16.57, 14.00, 18.26, 0.000, 0.000, 0.000, 10:20:28.330, 7
14, 10.80, 12.79, 17.10, 17.56, 0.000, 0.000, 0.000, 10:20:28.331, 7
15, 15.42, 8.28, 19.11, 11.90, 0.000, 0.000, 0.000, 10:20:28.332, 7
16, 15.09, 12.73, 20.24, 17.25, 0.000, 0.000, 0.000, 10:20:28.332, 7
17, 10.70, 15.03, 21.76, 19.29, 0.000, 0.000, 0.000, 10:20:28.333, 7
18, 16.08, 7.83, 15.00, 14.70, 0.000, 0.000, 0.000, 10:20:28.333, 7
19, 15.57, 11.90, 15.88, 10.63, 0.000, 0.000, 0.000, 10:20:28.335, 7
20, 17.81, 14.79, 20.56, 17.95, 0.000, 0.000, 0.000, 10:20:28.336, 7
21, 15.21, 17.51, 18.85, 18.01, 0.000, 0.000, 0.000, 10:20:28.350, 7
22, 13.82, 12.82, 16.39, 14.19, 0.000, 0.000, 0.000, 10:20:28.351, 7
23, 12.28, 8.85, 18.00, 11.11, 0.000, 0.000, 0.000, 10:20:28.351, 7
24, 15.91, 14.14, 19.43, 17.87, 0.000, 0.000, 0.000, 10:20:28.351, 7
25, 12.13, 17.91, 16.55, 17.92, 0.000, 0.000, 0.000, 10:20:28.365, 7
26, 10.98, 5.76, 14.05, 10.25, 0.000, 0.000, 0.000, 10:20:28.366, 7
27, 12.81, 9.29, 9.20, 12.85, 0.000, 0.000, 0.000, 10:20:28.381, 7
28, 11.89, 14.09, 21.21, 18.71, 0.000, 0.000, 0.000, 10:20:28.381, 7
29, 14.12, 12.81, 18.05, 17.93, 0.000, 0.000, 0.000, 10:20:28.382, 7
30, 12.68, 15.82, 17.40, 17.60, 0.000, 0.000, 0.000, 10:20:28.382, 7
31, 11.55, 9.89, 12.57, 13.01, 0.000, 0.000, 0.000, 10:20:28.396, 7
32, 17.87, 13.71, 18.51, 16.92, 0.000, 0.000, 0.000, 10:20:28.397, 7
33, 13.30, 11.74, 20.78, 16.24, 0.000, 0.000, 0.000, 10:20:28.411, 7
34, 14.72, 9.41, 12.57, 14.20, 0.000, 0.000, 0.000, 10:20:28.413, 7
35, 9.15, 10.93, 13.70, 14.82, 0.000, 0.000, 0.000, 10:20:28.413, 7
36, 21.73, 15.87, 18.68, 21.26, 0.000, 0.000, 0.000, 10:20:28.414, 7
37, 13.35, 11.33, 16.11, 19.28, 0.000, 0.000, 0.000, 10:20:28.429, 7
38, 11.77, 11.04, 16.20, 12.18, 0.000, 0.000, 0.000, 10:20:28.431, 7
39, 13.52, 8.91, 13.75, 14.23, 0.000, 0.000, 0.000, 10:20:28.444, 7
40, 13.00, 14.06, 17.62, 17.91, 0.000, 0.000, 0.000, 10:20:28.445, 7
41, 18.78, 17.31, 21.57, 19.63, 0.000, 0.000, 0.000, 10:20:28.446, 7
42, 7.77, 8.46, 15.16, 15.39, 0.000, 0.000, 0.000, 10:20:28.448, 7
43, 14.61, 4.28, 10.54, 9.59, 0.000, 0.000, 0.000, 10:20:28.456, 7
44, 9.38, 14.91, 16.58, 14.72, 0.000, 0.000, 0.000, 10:20:28.456, 7
45, 23.77, 15.16, 16.31, 16.56, 0.000, 0.000, 0.000, 10:20:28.471, 7
46, 7.68, 12.31, 18.40, 10.29, 0.000, 0.000, 0.000, 10:20:28.471, 7
47, 14.55, 9.10, 11.64, 10.48, 0.000, 0.000, 0.000, 10:20:28.471, 7
48, 9.57, 14.07, 19.62, 14.27, 0.000, 0.000, 0.000, 10:20:28.471, 7
49, 23.00, 18.67, 16.69, 20.59, 0.000, 0.000, 0.000, 10:20:28.486, 7
50, 11.13, 12.36, 15.18, 11.55, 0.000, 0.000, 0.000, 10:20:28.486, 7
51, 16.42, 10.31, 12.74, 14.94, 0.000, 0.000, 0.000, 10:20:28.501, 7
52, 11.60, 17.91, 20.28, 17.39, 0.000, 0.000, 0.000, 10:20:28.501, 7
53, 20.24, 17.65, 19.95, 23.26, 0.000, 0.000, 0.000, 10:20:28.509, 7
54, 15.39, 10.44, 11.47, 12.93, 0.000, 0.000, 0.000, 10:20:28.509, 7
55, 9.43, 7.06, 14.20, 11.16, 0.000, 0.000, 0.000, 10:20:28.516, 7
56, 15.11, 14.48, 16.12, 19.39, 0.000, 0.000, 0.000, 10:20:28.516, 7
57, 14.27, 16.35, 22.28, 19.87, 0.000, 0.000, 0.000, 10:20:28.531, 7
58, 13.74, 9.33, 14.88, 14.19, 0.000, 0.000, 0.000, 10:20:28.531, 7
59, 11.76, 10.12, 12.76, 9.69, 0.000, 0.000, 0.000, 10:20:28.533, 7
60, 15.46, 14.37, 17.74, 16.35, 0.000, 0.000, 0.000, 10:20:28.533, 7
61, 15.64, 16.16, 18.09, 18.34, 0.000, 0.000, 0.000, 10:20:28.546, 7
62, 11.09, 12.24, 12.61, 13.44, 0.000, 0.000, 0.000, 10:20:28.547, 7
63, 13.46, 8.55, 14.48, 10.79, 0.000, 0.000, 0.000, 10:20:28.562, 7
64, 13.13, 11.41, 20.59, 16.92, 0.000, 0.000, 0.000, 10:20:28.562, 7
65, 21.57, 13.76, 19.54, 16.57, 0.000, 0.000, 0.000, 10:20:28.562, 7
66, 13.37, 13.42, 14.17, 16.11, 0.000, 0.000, 0.000, 10:20:28.562, 7
67, 11.09, 11.11, 14.97, 9.21, 0.000, 0.000, 0.000, 10:20:28.575, 7
68, 12.98, 17.92, 21.30, 17.52, 0.000, 0.000, 0.000, 10:20:28.576, 7
69, 22.08, 18.49, 20.19, 19.10, 0.000, 0.000, 0.000, 10:20:28.591, 7
70, 8.41, 11.18, 12.61, 14.24, 0.000, 0.000, 0.000, 10:20:28.592, 7
71, 11.50, 9.45, 17.66, 16.07, 0.000, 0.000, 0.000, 10:20:28.594, 7
72, 17.56, 11.37, 23.42, 18.36, 0.000, 0.000, 0.000, 10:20:28.595, 7
73, 21.31, 11.46, 20.19, 19.15, 0.000, 0.000, 0.000, 10:20:28.605, 7
74, 10.16, 5.18, 14.18, 12.36, 0.000, 0.000, 0.000, 10:20:28.606, 7
75, 6.36, 7.59, 13.83, 13.59, 0.000, 0.000, 0.000, 10:20:28.620, 7
76, 15.31, 15.27, 19.17, 17.92, 0.000, 0.000, 0.000, 10:20:28.620, 7
77, 20.77, 18.93, 18.10, 18.16, 0.000, 0.000, 0.000, 10:20:28.621, 7
78, 6.21, 11.07, 16.26, 15.46, 0.000, 0.000, 0.000, 10:20:28.621, 7
79, 14.30, 14.56, 12.59, 10.97, 0.000, 0.000, 0.000, 10:20:28.636, 7
80, 14.26, 12.31, 15.27, 17.21, 0.000, 0.000, 0.000, 10:20:28.637, 7
81, 13.75, 14.40, 16.02, 19.18, 0.000, 0.000, 0.000, 10:20:28.651, 7
82, 13.98, 6.91, 12.71, 12.69, 0.000, 0.000, 0.000, 10:20:28.651, 7
83, 10.14, 11.42, 15.38, 13.67, 0.000, 0.000, 0.000, 10:20:28.652, 7
84, 17.86, 14.55, 17.07, 15.92, 0.000, 0.000, 0.000, 10:20:28.652, 7
85, 20.39, 12.84, 19.97, 20.73, 0.000, 0.000, 0.000, 10:20:28.666, 7
86, 11.91, 12.16, 12.63, 16.40, 0.000, 0.000, 0.000, 10:20:28.666, 7
87, 7.32, 9.00, 12.80, 8.87, 0.000, 0.000, 0.000, 10:20:28.682, 7
88, 11.91, 15.22, 20.29, 14.71, 0.000, 0.000, 0.000, 10:20:28.682, 7
89, 15.75, 16.30, 20.44, 17.64, 0.000, 0.000, 0.000, 10:20:28.683, 7
90, 15.23, 14.30, 14.67, 15.40, 0.000, 0.000, 0.000, 10:20:28.683, 7
91, 11.06, 9.20, 11.91, 13.89, 0.000, 0.000, 0.000, 10:20:28.697, 7
92, 18.56, 9.13, 16.86, 18.93, 0.000, 0.000, 0.000, 10:20:28.697, 7
93, 11.99, 13.83, 21.76, 17.55, 0.000, 0.000, 0.000, 10:20:28.711, 7
94, 8.66, 8.47, 11.80, 9.03, 0.000, 0.000, 0.000, 10:20:28.712, 7
95, 11.57, 9.44, 14.13, 11.24, 0.000, 0.000, 0.000, 10:20:28.713, 7
96, 18.42, 15.82, 18.95, 18.50, 0.000, 0.000, 0.000, 10:20:28.714, 7
97, 9.40, 13.75, 19.41, 12.00, 0.000, 0.000, 0.000, 10:20:28.727, 7
98, 8.81, 12.54, 17.81, 14.72, 0.000, 0.000, 0.000, 10:20:28.728, 7
99, 12.04, 10.05, 14.38, 10.49, 0.000, 0.000, 0.000, 10:20:28.741, 7
100, 8.85, 12.81, 20.16, 17.73, 0.000, 0.000, 0.000, 10:20:28.743, 7
101, 15.66, 12.90, 19.02, 16.57, 0.000, 0.000, 0.000, 10:20:28.744, 7
102, 10.97, 10.07, 14.12, 11.98, 0.000, 0.000, 0.000, 10:20:28.744, 7
103, 15.22, 7.17, 16.13, 12.89, 0.000, 0.000, 0.000, 10:20:28.762, 7
104, 16.46, 13.05, 12.41, 14.57, 0.000, 0.000, 0.000, 10:20:28.764, 7
105, 16.51, 15.25, 18.16, 21.50, 0.000, 0.000, 0.000, 10:20:28.771, 7
106, 13.16, 12.11, 14.74, 13.31, 0.000, 0.000, 0.000, 10:20:28.772, 7
107, 14.49, 8.32, 13.70, 10.12, 0.000, 0.000, 0.000, 10:20:28.773, 7
108, 11.83, 12.21, 19.11, 16.62, 0.000, 0.000, 0.000, 10:20:28.773, 7
109, 16.27, 16.97, 20.87, 21.72, 0.000, 0.000, 0.000, 10:20:28.786, 7
110, 14.42, 11.77, 16.42, 13.31, 0.000, 0.000, 0.000, 10:20:28.787, 7
111, 11.61, 8.49, 15.81, 11.24, 0.000, 0.000, 0.000, 10:20:28.802, 7
112, 15.73, 13.88, 21.27, 19.41, 0.000, 0.000, 0.000, 10:20:28.802, 7
113, 17.56, 7.59, 19.63, 19.13, 0.000, 0.000, 0.000, 10:20:28.803, 7
114, 8.21, 10.68, 14.37, 11.01, 0.000, 0.000, 0.000, 10:20:28.804, 7
115, 16.14, 9.29, 16.61, 13.74, 0.000, 0.000, 0.000, 10:20:28.817, 7
116, 14.77, 10.40, 15.64, 17.20, 0.000, 0.000, 0.000, 10:20:28.818, 7
117, 13.90, 14.81, 18.68, 15.20, 0.000, 0.000, 0.000, 10:20:28.831, 7
118, 15.11, 12.53, 15.54, 14.45, 0.000, 0.000, 0.000, 10:20:28.832, 7
119, 7.13, 14.10, 12.62, 11.52, 0.000, 0.000, 0.000, 10:20:28.833, 7
120, 16.38, 14.02, 15.36, 15.01, 0.000, 0.000, 0.000, 10:20:28.833, 7
121, 17.60, 14.75, 17.54, 15.41, 0.000, 0.000, 0.000, 10:20:28.846, 7
122, 12.15, 13.62, 14.40, 11.60, 0.000, 0.000, 0.000, 10:20:28.847, 7
123, 10.86, 4.86, 11.92, 12.72, 0.000, 0.000, 0.000, 10:20:28.861, 7
124, 16.56, 14.10, 19.43, 17.77, 0.000, 0.000, 0.000, 10:20:28.862, 7
125, 11.70, 13.38, 18.16, 20.34, 0.000, 0.000, 0.000, 10:20:28.863, 7
126, 5.84, 8.14, 14.95, 9.84, 0.000, 0.000, 0.000, 10:20:28.864, 7
127, 21.18, 11.60, 12.59, 12.83, 0.000, 0.000, 0.000, 10:20:28.877, 7
128, 16.07, 15.61, 18.88, 20.37, 0.000, 0.000, 0.000, 10:20:28.878, 7
129, 15.49, 13.12, 19.40, 15.49, 0.000, 0.000, 0.000, 10:20:28.890, 7
130, 14.61, 9.90, 10.72, 11.66, 0.000, 0.000, 0.000, 10:20:28.891, 7
131, 11.43, 6.71, 11.04, 12.73, 0.000, 0.000, 0.000, 10:20:28.892, 7
132, 11.28, 14.96, 18.32, 17.60, 0.000, 0.000, 0.000, 10:20:28.893, 7
133, 17.68, 16.10, 17.17, 19.05, 0.000, 0.000, 0.000, 10:20:28.905, 7
134, 7.20, 7.76, 19.64, 12.30, 0.000, 0.000, 0.000, 10:20:28.906, 7
135, 19.94, 13.07, 14.76, 17.30, 0.000, 0.000, 0.000, 10:20:28.921, 7
136, 17.56, 11.44, 14.71, 15.68, 0.000, 0.000, 0.000, 10:20:28.922, 7
137, 13.36, 17.35, 23.99, 19.55, 0.000, 0.000, 0.000, 10:20:28.922, 7
138, 13.74, 11.83, 13.10, 11.05, 0.000, 0.000, 0.000, 10:20:28.923, 7
139, 13.98, 12.84, 15.51, 11.34, 0.000, 0.000, 0.000, 10:20:28.948, 7
140, 11.57, 12.18, 17.24, 18.46, 0.000, 0.000, 0.000, 10:20:28.949, 7
141, 11.25, 10.34, 17.47, 15.91, 0.000, 0.000, 0.000, 10:20:28.951, 7
142, 13.21, 11.73, 17.52, 12.99, 0.000, 0.000, 0.000, 10:20:28.951, 7
143, 10.10, 5.17, 10.76, 12.98, 0.000, 0.000, 0.000, 10:20:28.952, 7
144, 12.51, 13.46, 16.63, 17.57, 0.000, 0.000, 0.000, 10:20:28.953, 7
145, 21.77, 15.69, 17.99, 16.84, 0.000, 0.000, 0.000, 10:20:28.967, 7
146, 11.17, 8.61, 9.90, 14.20, 0.000, 0.000, 0.000, 10:20:28.968, 7
147, 12.44, 11.54, 12.17, 13.57, 0.000, 0.000, 0.000, 10:20:28.981, 7
148, 14.09, 14.08, 19.64, 17.66, 0.000, 0.000, 0.000, 10:20:28.982, 7
149, 18.73, 15.03, 17.95, 16.07, 0.000, 0.000, 0.000, 10:20:28.983, 7
150, 10.80, 15.96, 13.10, 15.69, 0.000, 0.000, 0.000, 10:20:28.983, 7
151, 8.04, 6.54, 13.98, 9.03, 0.000, 0.000, 0.000, 10:20:29.015, 7
152, 14.25, 13.89, 19.48, 15.38, 0.000, 0.000, 0.000, 10:20:29.015, 7
153, 17.07, 19.09, 17.73, 19.51, 0.000, 0.000, 0.000, 10:20:29.016, 7
154, 11.08, 9.81, 16.68, 14.71, 0.000, 0.000, 0.000, 10:20:29.016, 7
155, 11.07, 14.81, 15.23, 14.36, 0.000, 0.000, 0.000, 10:20:29.016, 7
156, 17.42, 12.88, 20.32, 16.46, 0.000, 0.000, 0.000, 10:20:29.017, 7
157, 10.86, 13.87, 18.28, 18.26, 0.000, 0.000, 0.000, 10:20:29.028, 7
158, 9.70, 16.34, 14.08, 15.52, 0.000, 0.000, 0.000, 10:20:29.029, 7
159, 16.76, 8.57, 16.63, 12.33, 0.000, 0.000, 0.000, 10:20:29.042, 7
160, 14.34, 14.67, 20.17, 20.58, 0.000, 0.000, 0.000, 10:20:29.043, 7
161, 15.42, 14.89, 18.35, 17.78, 0.000, 0.000, 0.000, 10:20:29.044, 7
162, 9.57, 8.21, 15.88, 10.05, 0.000, 0.000, 0.000, 10:20:29.045, 7
163, 16.19, 9.93, 14.04, 13.29, 0.000, 0.000, 0.000, 10:20:29.056, 7
164, 16.36, 11.93, 16.28, 16.91, 0.000, 0.000, 0.000, 10:20:29.056, 7
165, 17.66, 13.91, 18.97, 18.86, 0.000, 0.000, 0.000, 10:20:29.071, 7
166, 7.17, 9.06, 10.77, 9.56, 0.000, 0.000, 0.000, 10:20:29.071, 7
167, 14.91, 5.48, 15.23, 12.50, 0.000, 0.000, 0.000, 10:20:29.071, 7
168, 15.08, 13.91, 20.90, 18.09, 0.000, 0.000, 0.000, 10:20:29.072, 7
169, 21.71, 17.08, 20.11, 20.48, 0.000, 0.000, 0.000, 10:20:29.086, 7
170, 12.53, 9.82, 15.88, 11.09, 0.000, 0.000, 0.000, 10:20:29.087, 7
171, 10.29, 10.88, 12.41, 10.09, 0.000, 0.000, 0.000, 10:20:29.101, 7
172, 13.51, 14.11, 18.80, 17.13, 0.000, 0.000, 0.000, 10:20:29.101, 7
173, 15.18, 14.47, 21.34, 16.17, 0.000, 0.000, 0.000, 10:20:29.101, 7
174, 14.07, 7.30, 13.00, 9.89, 0.000, 0.000, 0.000, 10:20:29.101, 7
175, 12.59, 8.88, 15.94, 17.17, 0.000, 0.000, 0.000, 10:20:29.116, 7
176, 15.34, 16.28, 20.87, 20.07, 0.000, 0.000, 0.000, 10:20:29.116, 7
177, 14.59, 11.46, 16.04, 17.79, 0.000, 0.000, 0.000, 10:20:29.131, 7
178, 7.51, 9.98, 9.59, 10.17, 0.000, 0.000, 0.000, 10:20:29.131, 7
179, 8.94, 12.20, 13.14, 11.79, 0.000, 0.000, 0.000, 10:20:29.131, 7
180, 16.05, 13.93, 18.93, 18.80, 0.000, 0.000, 0.000, 10:20:29.131, 7
181, 13.17, 14.33, 18.12, 18.16, 0.000, 0.000, 0.000, 10:20:29.146, 7
182, 16.26, 13.83, 12.40, 14.77, 0.000, 0.000, 0.000, 10:20:29.147, 7
183, 7.75, 8.94, 14.71, 17.47, 0.000, 0.000, 0.000, 10:20:29.161, 7
184, 12.35, 13.07, 16.54, 16.93, 0.000, 0.000, 0.000, 10:20:29.161, 7
185, 15.07, 17.16, 21.72, 14.62, 0.000, 0.000, 0.000, 10:20:29.162, 7
186, 13.69, 11.79, 17.64, 12.04, 0.000, 0.000, 0.000, 10:20:29.162, 7
187, 7.47, 4.54, 14.70, 7.97, 0.000, 0.000, 0.000, 10:20:29.178, 7
188, 13.53, 14.53, 20.25, 17.55, 0.000, 0.000, 0.000, 10:20:29.178, 7
189, 14.71, 9.67, 22.92, 17.56, 0.000, 0.000, 0.000, 10:20:29.192, 7
190, 11.06, 10.97, 14.41, 15.61, 0.000, 0.000, 0.000, 10:20:29.192, 7
191, 20.24, 12.33, 16.66, 14.67, 0.000, 0.000, 0.000, 10:20:29.193, 7
192, 21.18, 13.20, 20.20, 19.51, 0.000, 0.000, 0.000, 10:20:29.193, 7
193, 17.60, 15.95, 14.94, 17.06, 0.000, 0.000, 0.000, 10:20:29.206, 7
194, 15.57, 9.74, 11.65, 13.77, 0.000, 0.000, 0.000, 10:20:29.206, 7
195, 7.99, 7.46, 14.41, 10.31, 0.000, 0.000, 0.000, 10:20:29.221, 7
196, 14.62, 17.76, 17.96, 17.02, 0.000, 0.000, 0.000, 10:20:29.221, 7
197, 13.06, 14.56, 23.03, 16.82, 0.000, 0.000, 0.000, 10:20:29.221, 7
198, 13.65, 11.06, 13.53, 8.61, 0.000, 0.000, 0.000, 10:20:29.221, 7
199, 7.89, 7.84, 12.89, 10.38, 0.000, 0.000, 0.000, 10:20:29.235, 7
200, 10.67, 11.80, 17.55, 17.49, 0.000, 0.000, 0.000, 10:20:29.235, 7
0, 13.46, 16.61, 18.72, 21.61, 0.000, 0.000, 0.000, 10:20:29.236, 7
1, 13.83, 10.63, 15.88, 16.66, 0.000, 0.000, 0.000, 10:20:29.251, 7
2, 12.42, 10.92, 16.51, 12.08, 0.000, 0.000, 0.000, 10:20:29.251, 7
3, 12.11, 15.50, 17.32, 19.09, 0.000, 0.000, 0.000, 10:20:29.266, 7
4, 21.34, 15.61, 17.33, 20.93, 0.000, 0.000, 0.000, 10:20:29.266, 7
5, 12.75, 8.18, 12.59, 12.12, 0.000, 0.000, 0.000, 10:20:29.273, 7
6, 12.70, 6.86, 9.19, 13.43, 0.000, 0.000, 0.000, 10:20:29.273, 7
7, 17.51, 10.07, 16.89, 15.56, 0.000, 0.000, 0.000, 10:20:29.298, 7
8, 17.24, 13.65, 16.69, 15.82, 0.000, 0.000, 0.000, 10:20:29.298, 7
9, 16.17, 11.83, 21.23, 15.74, 0.000, 0.000, 0.000, 10:20:29.298, 7
10, 13.61, 12.79, 11.16, 15.66, 0.000, 0.000, 0.000, 10:20:29.299, 7
11, 17.30, 12.89, 13.12, 20.13, 0.000, 0.000, 0.000, 10:20:29.299, 7
12, 17.04, 14.78, 19.27, 24.39, 0.000, 0.000, 0.000, 10:20:29.299, 7
13, 13.46, 9.74, 18.14, 13.22, 0.000, 0.000, 0.000, 10:20:29.311, 7
14, 10.22, 9.16, 13.00, 13.31, 0.000, 0.000, 0.000, 10:20:29.312, 7
15, 18.73, 15.17, 21.54, 16.10, 0.000, 0.000, 0.000, 10:20:29.326, 7
16, 13.43, 16.62, 18.90, 16.95, 0.000, 0.000, 0.000, 10:20:29.326, 7
17, 11.96, 13.51, 13.59, 10.70, 0.000, 0.000, 0.000, 10:20:29.326, 7
18, 9.65, 7.73, 12.37, 10.50, 0.000, 0.000, 0.000, 10:20:29.326, 7
19, 8.49, 15.29, 15.14, 17.81, 0.000, 0.000, 0.000, 10:20:29.341, 7
20, 17.19, 16.65, 19.10, 17.41, 0.000, 0.000, 0.000, 10:20:29.341, 7
21, 9.23, 13.16, 16.16, 14.45, 0.000, 0.000, 0.000, 10:20:29.355, 7
22, 13.93, 7.43, 13.60, 11.20, 0.000, 0.000, 0.000, 10:20:29.355, 7
23, 17.73, 15.11, 19.16, 14.95, 0.000, 0.000, 0.000, 10:20:29.355, 7
24, 6.97, 12.45, 18.31, 20.20, 0.000, 0.000, 0.000, 10:20:29.356, 7
25, 12.83, 12.60, 15.27, 14.92, 0.000, 0.000, 0.000, 10:20:29.371, 7
26, 14.24, 7.46, 14.01, 12.70, 0.000, 0.000, 0.000, 10:20:29.371, 7
27, 14.14, 13.39, 18.10, 19.11, 0.000, 0.000, 0.000, 10:20:29.386, 7
28, 14.28, 13.28, 20.52, 17.64, 0.000, 0.000, 0.000, 10:20:29.386, 7
29, 15.16, 10.28, 12.01, 10.01, 0.000, 0.000, 0.000, 10:20:29.387, 7
30, 8.74, 8.67, 12.10, 11.30, 0.000, 0.000, 0.000, 10:20:29.387, 7
31, 18.70, 16.33, 19.01, 15.80, 0.000, 0.000, 0.000, 10:20:29.402, 7
32, 17.97, 15.01, 22.74, 20.48, 0.000, 0.000, 0.000, 10:20:29.402, 7
33, 15.94, 13.34, 16.57, 15.84, 0.000, 0.000, 0.000, 10:20:29.416, 7
34, 12.21, 8.65, 15.79, 11.19, 0.000, 0.000, 0.000, 10:20:29.417, 7
35, 15.35, 14.55, 16.43, 15.73, 0.000, 0.000, 0.000, 10:20:29.417, 7
36, 18.50, 18.50, 16.90, 16.96, 0.000, 0.000, 0.000, 10:20:29.418, 7
37, 13.61, 12.07, 15.88, 12.38, 0.000, 0.000, 0.000, 10:20:29.431, 7
38, 9.05, 5.93, 10.07, 13.14, 0.000, 0.000, 0.000, 10:20:29.432, 7
39, 14.76, 17.05, 19.48, 15.08, 0.000, 0.000, 0.000, 10:20:29.450, 7
40, 11.18, 9.76, 18.17, 19.45, 0.000, 0.000, 0.000, 10:20:29.451, 7
41, 18.56, 13.87, 14.74, 15.54, 0.000, 0.000, 0.000, 10:20:29.452, 7
42, 13.48, 9.22, 12.33, 15.05, 0.000, 0.000, 0.000, 10:20:29.452, 7
43, 12.81, 13.36, 20.40, 15.00, 0.000, 0.000, 0.000, 10:20:29.462, 7
44, 19.34, 14.49, 20.06, 18.06, 0.000, 0.000, 0.000, 10:20:29.463, 7
45, 10.74, 11.04, 16.11, 11.74, 0.000, 0.000, 0.000, 10:20:29.476, 7
46, 12.39, 6.61, 13.92, 10.76, 0.000, 0.000, 0.000, 10:20:29.477, 7
47, 11.26, 12.50, 17.57, 17.73, 0.000, 0.000, 0.000, 10:20:29.477, 7
48, 16.04, 14.96, 20.65, 18.02, 0.000, 0.000, 0.000, 10:20:29.478, 7
49, 13.91, 15.07, 18.09, 15.48, 0.000, 0.000, 0.000, 10:20:29.494, 7
50, 10.26, 8.07, 13.56, 16.82, 0.000, 0.000, 0.000, 10:20:29.495, 7
51, 16.80, 11.29, 18.91, 16.21, 0.000, 0.000, 0.000, 10:20:29.505, 7
52, 17.44, 11.74, 18.17, 17.54, 0.000, 0.000, 0.000, 10:20:29.505, 7
53, 14.62, 12.12, 18.52, 11.99, 0.000, 0.000, 0.000, 10:20:29.506, 7
54, 12.22, 11.61, 13.45, 14.81, 0.000, 0.000, 0.000, 10:20:29.506, 7
55, 17.11, 10.05, 14.18, 15.69, 0.000, 0.000, 0.000, 10:20:29.520, 7
56, 14.08, 16.99, 17.78, 19.02, 0.000, 0.000, 0.000, 10:20:29.520, 7
57, 12.97, 9.76, 17.20, 12.66, 0.000, 0.000, 0.000, 10:20:29.535, 7
58, 6.88, 9.96, 10.91, 6.42, 0.000, 0.000, 0.000, 10:20:29.535, 7
59, 15.38, 16.65, 17.60, 18.49, 0.000, 0.000, 0.000, 10:20:29.536, 7
60, 15.17, 12.22, 20.23, 16.15, 0.000, 0.000, 0.000, 10:20:29.536, 7
61, 11.11, 9.73, 13.43, 11.08, 0.000, 0.000, 0.000, 10:20:29.550, 7
62, 11.72, 9.11, 12.05, 13.03, 0.000, 0.000, 0.000, 10:20:29.550, 7
63, 15.08, 17.58, 20.12, 18.73, 0.000, 0.000, 0.000, 10:20:29.566, 7
64, 14.49, 19.10, 21.82, 18.45, 0.000, 0.000, 0.000, 10:20:29.566, 7
65, 10.23, 10.16, 11.80, 16.09, 0.000, 0.000, 0.000, 10:20:29.566, 7
66, 9.38, 8.99, 15.63, 12.92, 0.000, 0.000, 0.000, 10:20:29.566, 7
67, 16.83, 12.93, 14.78, 16.92, 0.000, 0.000, 0.000, 10:20:29.581, 7
68, 15.50, 13.60, 17.57, 17.48, 0.000, 0.000, 0.000, 10:20:29.581, 7
69, 12.84, 8.63, 18.53, 17.27, 0.000, 0.000, 0.000, 10:20:29.595, 7
70, 16.63, 8.09, 15.98, 13.61, 0.000, 0.000, 0.000, 10:20:29.596, 7
71, 12.29, 13.18, 18.30, 18.17, 0.000, 0.000, 0.000, 10:20:29.596, 7
72, 14.88, 15.31, 20.88, 19.02, 0.000, 0.000, 0.000, 10:20:29.596, 7
73, 11.28, 11.29, 14.86, 13.70, 0.000, 0.000, 0.000, 10:20:29.612, 7
74, 9.37, 8.99, 15.18, 10.08, 0.000, 0.000, 0.000, 10:20:29.612, 7
75, 15.55, 16.24, 16.94, 17.86, 0.000, 0.000, 0.000, 10:20:29.626, 7
76, 15.09, 14.27, 18.18, 18.58, 0.000, 0.000, 0.000, 10:20:29.626, 7
77, 14.83, 9.12, 17.18, 16.77, 0.000, 0.000, 0.000, 10:20:29.626, 7
78, 12.79, 8.51, 20.23, 13.33, 0.000, 0.000, 0.000, 10:20:29.627, 7
79, 15.05, 15.20, 16.55, 17.61, 0.000, 0.000, 0.000, 10:20:29.641, 7
80, 17.73, 14.50, 17.42, 19.56, 0.000, 0.000, 0.000, 10:20:29.642, 7
81, 11.92, 13.22, 11.26, 13.04, 0.000, 0.000, 0.000, 10:20:29.657, 7
82, 13.71, 11.60, 15.35, 16.54, 0.000, 0.000, 0.000, 10:20:29.657, 7
83, 12.21, 13.29, 17.87, 14.80, 0.000, 0.000, 0.000, 10:20:29.657, 7
84, 17.08, 14.76, 20.15, 18.71, 0.000, 0.000, 0.000, 10:20:29.659, 7
85, 12.38, 9.88, 16.51, 14.08, 0.000, 0.000, 0.000, 10:20:29.679, 7
86, 15.54, 7.15, 12.45, 16.22, 0.000, 0.000, 0.000, 10:20:29.679, 7
87, 14.41, 10.54, 19.19, 13.86, 0.000, 0.000, 0.000, 10:20:29.687, 7
88, 14.94, 18.57, 19.45, 19.38, 0.000, 0.000, 0.000, 10:20:29.688, 7
89, 9.52, 10.17, 14.08, 14.61, 0.000, 0.000, 0.000, 10:20:29.688, 7
90, 12.11, 10.33, 13.40, 15.35, 0.000, 0.000, 0.000, 10:20:29.689, 7
91, 16.30, 15.67, 16.35, 16.62, 0.000, 0.000, 0.000, 10:20:29.718, 7
92, 14.49, 12.26, 21.23, 16.91, 0.000, 0.000, 0.000, 10:20:29.718, 7
93, 11.09, 12.67, 13.52, 14.32, 0.000, 0.000, 0.000, 10:20:29.719, 7
94, 11.83, 12.13, 12.75, 14.99, 0.000, 0.000, 0.000, 10:20:29.720, 7
95, 12.30, 16.88, 17.11, 18.13, 0.000, 0.000, 0.000, 10:20:29.720, 7
96, 17.91, 13.76, 15.14, 15.27, 0.000, 0.000, 0.000, 10:20:29.721, 7
97, 14.17, 9.18, 12.64, 9.91, 0.000, 0.000, 0.000, 10:20:29.747, 7
98, 12.34, 10.26, 13.55, 12.69, 0.000, 0.000, 0.000, 10:20:29.748, 7
99, 9.62, 15.42, 21.80, 14.14, 0.000, 0.000, 0.000, 10:20:29.748, 7
100, 17.09, 13.26, 17.75, 14.42, 0.000, 0.000, 0.000, 10:20:29.748, 7
101, 15.13, 10.17, 16.55, 15.01, 0.000, 0.000, 0.000, 10:20:29.749, 7
102, 12.55, 7.26, 12.30, 12.45, 0.000, 0.000, 0.000, 10:20:29.749, 7
103, 15.30, 14.67, 21.32, 16.96, 0.000, 0.000, 0.000, 10:20:29.762, 7
104, 15.92, 13.72, 18.84, 17.52, 0.000, 0.000, 0.000, 10:20:29.762, 7
105, 15.84, 10.29, 18.01, 17.00, 0.000, 0.000, 0.000, 10:20:29.794, 7
106, 10.75, 10.92, 9.49, 11.77, 0.000, 0.000, 0.000, 10:20:29.794, 7
107, 12.63, 10.88, 18.41, 20.39, 0.000, 0.000, 0.000, 10:20:29.796, 7
108, 15.10, 16.03, 14.75, 15.67, 0.000, 0.000, 0.000, 10:20:29.796, 7
109, 7.90, 10.13, 10.75, 11.28, 0.000, 0.000, 0.000, 10:20:29.796, 7
110, 9.05, 6.95, 14.48, 11.68, 0.000, 0.000, 0.000, 10:20:29.797, 7
111, 14.44, 10.58, 22.46, 18.19, 0.000, 0.000, 0.000, 10:20:29.797, 7
112, 19.06, 14.88, 20.89, 17.77, 0.000, 0.000, 0.000, 10:20:29.798, 7
113, 10.09, 14.18, 15.97, 11.07, 0.000, 0.000, 0.000, 10:20:29.806, 7
114, 18.20, 12.61, 13.18, 14.68, 0.000, 0.000, 0.000, 10:20:29.806, 7
115, 12.29, 14.27, 17.27, 15.26, 0.000, 0.000, 0.000, 10:20:29.835, 7
116, 16.43, 13.65, 15.46, 14.53, 0.000, 0.000, 0.000, 10:20:29.835, 7
117, 11.63, 12.21, 13.71, 12.82, 0.000, 0.000, 0.000, 10:20:29.836, 7
118, 13.12, 9.08, 15.35, 15.81, 0.000, 0.000, 0.000, 10:20:29.836, 7
119, 12.74, 16.26, 18.22, 15.40, 0.000, 0.000, 0.000, 10:20:29.837, 7
120, 13.36, 13.52, 20.53, 17.85, 0.000, 0.000, 0.000, 10:20:29.837, 7
121, 17.66, 10.25, 12.28, 14.22, 0.000, 0.000, 0.000, 10:20:29.850, 7
122, 9.77, 6.62, 10.68, 11.36, 0.000, 0.000, 0.000, 10:20:29.850, 7
123, 15.18, 16.69, 18.11, 14.73, 0.000, 0.000, 0.000, 10:20:29.865, 7
124, 13.41, 13.39, 17.42, 19.82, 0.000, 0.000, 0.000, 10:20:29.865, 7
125, 13.45, 11.13, 13.26, 13.86, 0.000, 0.000, 0.000, 10:20:29.866, 7
126, 14.43, 11.29, 11.33, 16.43, 0.000, 0.000, 0.000, 10:20:29.866, 7
127, 13.61, 13.98, 17.75, 15.52, 0.000, 0.000, 0.000, 10:20:29.880, 7
128, 15.56, 14.43, 18.41, 17.51, 0.000, 0.000, 0.000, 10:20:29.880, 7
129, 14.64, 12.08, 13.06, 13.50, 0.000, 0.000, 0.000, 10:20:29.896, 7
130, 12.31, 10.25, 12.21, 15.60, 0.000, 0.000, 0.000, 10:20:29.896, 7
131, 8.76, 15.30, 19.76, 13.28, 0.000, 0.000, 0.000, 10:20:29.896, 7
132, 12.30, 11.32, 18.18, 15.24, 0.000, 0.000, 0.000, 10:20:29.896, 7
133, 18.25, 12.31, 20.56, 17.75, 0.000, 0.000, 0.000, 10:20:29.911, 7
134, 13.60, 7.86, 14.71, 16.16, 0.000, 0.000, 0.000, 10:20:29.911, 7
135, 17.24, 11.35, 20.71, 15.03, 0.000, 0.000, 0.000, 10:20:29.926, 7
136, 12.20, 15.79, 18.67, 17.99, 0.000, 0.000, 0.000, 10:20:29.926, 7
137, 15.86, 8.91, 14.35, 10.15, 0.000, 0.000, 0.000, 10:20:29.926, 7
138, 14.51, 12.26, 12.84, 12.33, 0.000, 0.000, 0.000, 10:20:29.927, 7
139, 14.86, 16.21, 20.31, 16.78, 0.000, 0.000, 0.000, 10:20:29.940, 7
140, 17.08, 15.13, 24.04, 18.11, 0.000, 0.000, 0.000, 10:20:29.940, 7
141, 18.41, 8.75, 19.53, 12.10, 0.000, 0.000, 0.000, 10:20:29.955, 7
142, 12.38, 9.21, 12.04, 11.39, 0.000, 0.000, 0.000, 10:20:29.956, 7
143, 13.86, 13.52, 17.89, 17.50, 0.000, 0.000, 0.000, 10:20:29.956, 7
144, 14.05, 12.02, 18.74, 18.60, 0.000, 0.000, 0.000, 10:20:29.956, 7
145, 16.35, 13.63, 16.62, 12.06, 0.000, 0.000, 0.000, 10:20:29.970, 7
146, 9.46, 13.97, 14.84, 13.33, 0.000, 0.000, 0.000, 10:20:29.971, 7
147, 14.25, 17.34, 17.14, 17.32, 0.000, 0.000, 0.000, 10:20:29.985, 7
148, 18.85, 15.94, 22.53, 20.99, 0.000, 0.000, 0.000, 10:20:29.985, 7
149, 7.12, 6.00, 16.71, 11.72, 0.000, 0.000, 0.000, 10:20:29.986, 7
150, 9.16, 9.18, 13.49, 10.13, 0.000, 0.000, 0.000, 10:20:29.986, 7
151, 17.50, 10.76, 15.73, 14.82, 0.000, 0.000, 0.000, 10:20:30.000, 7
152, 16.20, 15.42, 15.19, 21.09, 0.000, 0.000, 0.000, 10:20:30.000, 7
153, 13.63, 12.98, 11.77, 14.01, 0.000, 0.000, 0.000, 10:20:30.015, 7
154, 11.58, 11.37, 12.87, 12.14, 0.000, 0.000, 0.000, 10:20:30.015, 7
155, 11.57, 11.40, 18.01, 19.84, 0.000, 0.000, 0.000, 10:20:30.015, 7
156, 12.69, 11.85, 16.67, 18.50, 0.000, 0.000, 0.000, 10:20:30.016, 7
157, 11.31, 8.95, 11.94, 10.01, 0.000, 0.000, 0.000, 10:20:30.030, 7
158, 8.64, 8.36, 16.10, 12.57, 0.000, 0.000, 0.000, 10:20:30.030, 7
159, 13.75, 12.72, 17.71, 15.37, 0.000, 0.000, 0.000, 10:20:30.047, 7
160, 14.77, 17.01, 21.62, 21.24, 0.000, 0.000, 0.000, 10:20:30.047, 7
161, 12.66, 12.60, 14.94, 10.88, 0.000, 0.000, 0.000, 10:20:30.047, 7
162, 12.61, 13.15, 10.81, 11.51, 0.000, 0.000, 0.000, 10:20:30.047, 7
163, 13.75, 18.49, 16.99, 18.40, 0.000, 0.000, 0.000, 10:20:30.063, 7
164, 18.16, 15.73, 21.27, 17.36, 0.000, 0.000, 0.000, 10:20:30.063, 7
165, 9.38, 10.21, 11.77, 11.04, 0.000, 0.000, 0.000, 10:20:30.076, 7
166, 13.30, 11.43, 14.45, 16.38, 0.000, 0.000, 0.000, 10:20:30.077, 7
167, 15.79, 11.50, 21.58, 17.84, 0.000, 0.000, 0.000, 10:20:30.077, 7
168, 24.36, 19.34, 21.27, 22.02, 0.000, 0.000, 0.000, 10:20:30.077, 7
169, 9.50, 10.65, 9.87, 11.64, 0.000, 0.000, 0.000, 10:20:30.092, 7
170, 7.13, 6.81, 14.24, 11.16, 0.000, 0.000, 0.000, 10:20:30.092, 7
171, 18.03, 12.34, 17.41, 15.26, 0.000, 0.000, 0.000, 10:20:30.106, 7
172, 16.11, 14.17, 21.41, 15.98, 0.000, 0.000, 0.000, 10:20:30.106, 7
173, 12.68, 12.09, 17.63, 14.40, 0.000, 0.000, 0.000, 10:20:30.106, 7
174, 10.27, 11.44, 12.79, 12.48, 0.000, 0.000, 0.000, 10:20:30.106, 7
175, 15.32, 11.60, 17.38, 14.67, 0.000, 0.000, 0.000, 10:20:30.121, 7
176, 17.11, 15.49, 21.48, 14.33, 0.000, 0.000, 0.000, 10:20:30.121, 7
177, 10.45, 7.87, 16.23, 14.80, 0.000, 0.000, 0.000, 10:20:30.136, 7
178, 6.35, 9.53, 18.10, 13.28, 0.000, 0.000, 0.000, 10:20:30.136, 7
179, 14.97, 12.96, 17.02, 14.97, 0.000, 0.000, 0.000, 10:20:30.136, 7
180, 16.87, 12.96, 18.29, 17.30, 0.000, 0.000, 0.000, 10:20:30.136, 7
181, 8.44, 13.69, 12.19, 13.89, 0.000, 0.000, 0.000, 10:20:30.151, 7
182, 13.20, 12.87, 13.53, 16.29, 0.000, 0.000, 0.000, 10:20:30.151, 7
183, 13.58, 9.50, 18.11, 20.02, 0.000, 0.000, 0.000, 10:20:30.166, 7
184, 14.31, 14.71, 19.33, 20.08, 0.000, 0.000, 0.000, 10:20:30.166, 7
185, 14.31, 8.91, 14.23, 14.23, 0.000, 0.000, 0.000, 10:20:30.167, 7
186, 12.62, 9.20, 14.60, 9.30, 0.000, 0.000, 0.000, 10:20:30.167, 7
187, 17.73, 12.22, 18.55, 18.32, 0.000, 0.000, 0.000, 10:20:30.180, 7
188, 17.17, 14.97, 19.03, 16.76, 0.000, 0.000, 0.000, 10:20:30.181, 7
189, 10.10, 11.35, 13.61, 14.83, 0.000, 0.000, 0.000, 10:20:30.196, 7
190, 6.40, 11.24, 10.96, 9.45, 0.000, 0.000, 0.000, 10:20:30.196, 7
191, 16.63, 11.30, 17.08, 18.41, 0.000, 0.000, 0.000, 10:20:30.196, 7
192, 16.12, 15.49, 22.48, 20.78, 0.000, 0.000, 0.000, 10:20:30.196, 7
193, 16.52, 13.33, 13.95, 14.52, 0.000, 0.000, 0.000, 10:20:30.212, 7
194, 11.51, 11.79, 13.23, 11.51, 0.000, 0.000, 0.000, 10:20:30.212, 7
195, 16.57, 13.99, 17.95, 17.07, 0.000, 0.000, 0.000, 10:20:30.226, 7
196, 20.10, 17.53, 18.62, 18.09, 0.000, 0.000, 0.000, 10:20:30.226, 7
197, 12.87, 9.43, 13.76, 12.19, 0.000, 0.000, 0.000, 10:20:30.227, 7
198, 12.57, 10.98, 14.43, 9.48, 0.000, 0.000, 0.000, 10:20:30.227, 7
199, 16.73, 14.92, 22.06, 17.91, 0.000, 0.000, 0.000, 10:20:30.240, 7
200, 16.01, 12.52, 20.64, 17.62, 0.000, 0.000, 0.000, 10:20:30.241, 7
0, 13.85, 7.93, 17.42, 14.77, 0.000, 0.000, 0.000, 10:20:30.242, 7
1, 4.43, 8.21, 6.25, 11.92, 0.000, 0.000, 0.000, 10:20:30.256, 7
2, 13.93, 17.11, 17.02, 18.46, 0.000, 0.000, 0.000, 10:20:30.256, 7
3, 18.18, 14.05, 21.32, 19.58, 0.000, 0.000, 0.000, 10:20:30.271, 7
4, 13.19, 6.35, 16.34, 11.72, 0.000, 0.000, 0.000, 10:20:30.271, 7
5, 14.97, 7.71, 11.72, 15.05, 0.000, 0.000, 0.000, 10:20:30.278, 7
6, 18.40, 18.37, 18.55, 21.21, 0.000, 0.000, 0.000, 10:20:30.279, 7
7, 15.51, 15.50, 21.16, 16.22, 0.000, 0.000, 0.000, 10:20:30.286, 7
8, 14.30, 11.45, 12.88, 14.12, 0.000, 0.000, 0.000, 10:20:30.286, 7
9, 9.65, 6.66, 7.99, 12.33, 0.000, 0.000, 0.000, 10:20:30.300, 7
10, 19.19, 12.88, 19.25, 15.17, 0.000, 0.000, 0.000, 10:20:30.301, 7
11, 13.97, 8.08, 16.86, 19.38, 0.000, 0.000, 0.000, 10:20:30.301, 7
12, 13.47, 11.10, 16.07, 16.44, 0.000, 0.000, 0.000, 10:20:30.301, 7
13, 11.56, 9.64, 11.69, 8.43, 0.000, 0.000, 0.000, 10:20:30.315, 7
14, 13.90, 11.65, 22.40, 19.12, 0.000, 0.000, 0.000, 10:20:30.316, 7
15, 15.11, 17.57, 20.75, 18.34, 0.000, 0.000, 0.000, 10:20:30.346, 7
16, 13.97, 12.77, 15.41, 16.03, 0.000, 0.000, 0.000, 10:20:30.347, 7
17, 9.36, 10.75, 11.94, 13.59, 0.000, 0.000, 0.000, 10:20:30.347, 7
18, 16.50, 16.32, 19.61, 18.01, 0.000, 0.000, 0.000, 10:20:30.347, 7
19, 15.03, 19.45, 16.78, 15.21, 0.000, 0.000, 0.000, 10:20:30.348, 7
20, 13.64, 11.87, 15.32, 15.21, 0.000, 0.000, 0.000, 10:20:30.348, 7
21, 9.09, 9.11, 17.81, 12.71, 0.000, 0.000, 0.000, 10:20:30.357, 7
22, 19.29, 14.24, 17.23, 13.48, 0.000, 0.000, 0.000, 10:20:30.357, 7
23, 10.86, 16.95, 17.27, 16.32, 0.000, 0.000, 0.000, 10:20:30.360, 7
24, 10.09, 7.50, 13.00, 12.78, 0.000, 0.000, 0.000, 10:20:30.361, 7
25, 7.99, 8.54, 16.78, 13.97, 0.000, 0.000, 0.000, 10:20:30.376, 7
26, 14.96, 18.41, 22.66, 19.06, 0.000, 0.000, 0.000, 10:20:30.376, 7
27, 16.09, 12.27, 21.61, 17.89, 0.000, 0.000, 0.000, 10:20:30.395, 7
28, 12.18, 13.30, 14.51, 9.90, 0.000, 0.000, 0.000, 10:20:30.395, 7
29, 14.71, 13.52, 14.68, 15.66, 0.000, 0.000, 0.000, 10:20:30.396, 7
30, 12.90, 10.34, 15.28, 14.74, 0.000, 0.000, 0.000, 10:20:30.397, 7
31, 15.00, 14.71, 19.73, 19.50, 0.000, 0.000, 0.000, 10:20:30.405, 7
32, 12.96, 11.41, 18.07, 13.29, 0.000, 0.000, 0.000, 10:20:30.406, 7
33, 11.42, 11.23, 9.95, 15.26, 0.000, 0.000, 0.000, 10:20:30.421, 7
34, 17.37, 14.04, 15.10, 17.84, 0.000, 0.000, 0.000, 10:20:30.421, 7
35, 14.99, 15.06, 19.52, 19.60, 0.000, 0.000, 0.000, 10:20:30.422, 7
36, 15.40, 10.66, 12.50, 8.42, 0.000, 0.000, 0.000, 10:20:30.422, 7
37, 9.43, 6.66, 14.13, 9.03, 0.000, 0.000, 0.000, 10:20:30.436, 7
38, 14.23, 10.47, 17.46, 18.05, 0.000, 0.000, 0.000, 10:20:30.436, 7
39, 18.06, 12.08, 20.51, 17.79, 0.000, 0.000, 0.000, 10:20:30.452, 7
40, 8.96, 7.18, 13.15, 14.40, 0.000, 0.000, 0.000, 10:20:30.452, 7
41, 14.80, 8.47, 11.59, 12.40, 0.000, 0.000, 0.000, 10:20:30.453, 7
42, 14.86, 15.34, 21.18, 17.24, 0.000, 0.000, 0.000, 10:20:30.453, 7
43, 14.54, 15.13, 18.97, 15.51, 0.000, 0.000, 0.000, 10:20:30.467, 7
44, 9.62, 8.18, 10.92, 12.35, 0.000, 0.000, 0.000, 10:20:30.468, 7
45, 13.91, 9.55, 12.63, 13.47, 0.000, 0.000, 0.000, 10:20:30.482, 7
46, 14.17, 14.82, 14.56, 21.48, 0.000, 0.000, 0.000, 10:20:30.483, 7
47, 18.67, 19.01, 18.69, 15.20, 0.000, 0.000, 0.000, 10:20:30.483, 7
48, 13.08, 8.18, 17.65, 12.60, 0.000, 0.000, 0.000, 10:20:30.484, 7
49, 12.31, 8.61, 10.55, 11.32, 0.000, 0.000, 0.000, 10:20:30.497, 7
50, 17.82, 14.19, 21.12, 20.56, 0.000, 0.000, 0.000, 10:20:30.497, 7
51, 11.33, 10.02, 17.76, 22.45, 0.000, 0.000, 0.000, 10:20:30.511, 7
52, 10.30, 7.23, 15.24, 14.16, 0.000, 0.000, 0.000, 10:20:30.512, 7
53, 11.18, 7.41, 12.38, 9.41, 0.000, 0.000, 0.000, 10:20:30.513, 7
54, 17.94, 14.66, 20.96, 18.01, 0.000, 0.000, 0.000, 10:20:30.513, 7
55, 15.03, 16.10, 25.67, 19.54, 0.000, 0.000, 0.000, 10:20:30.527, 7
56, 8.17, 11.08, 16.00, 10.76, 0.000, 0.000, 0.000, 10:20:30.528, 7
57, 15.02, 10.60, 12.45, 15.13, 0.000, 0.000, 0.000, 10:20:30.541, 7
58, 14.70, 19.98, 21.40, 17.90, 0.000, 0.000, 0.000, 10:20:30.542, 7
59, 13.94, 13.16, 17.44, 15.14, 0.000, 0.000, 0.000, 10:20:30.544, 7
60, 14.77, 11.99, 15.92, 12.78, 0.000, 0.000, 0.000, 10:20:30.545, 7
61, 11.59, 8.87, 12.24, 11.66, 0.000, 0.000, 0.000, 10:20:30.556, 7
62, 14.77, 14.58, 17.28, 18.36, 0.000, 0.000, 0.000, 10:20:30.557, 7
63, 16.68, 12.06, 20.26, 20.56, 0.000, 0.000, 0.000, 10:20:30.571, 7
64, 9.26, 9.25, 18.60, 15.46, 0.000, 0.000, 0.000, 10:20:30.572, 7
65, 10.84, 14.54, 10.19, 13.67, 0.000, 0.000, 0.000, 10:20:30.573, 7
66, 15.27, 12.11, 17.93, 16.29, 0.000, 0.000, 0.000, 10:20:30.573, 7
67, 17.66, 14.99, 16.46, 13.73, 0.000, 0.000, 0.000, 10:20:30.587, 7
68, 15.10, 9.76, 15.01, 12.41, 0.000, 0.000, 0.000, 10:20:30.587, 7
69, 10.37, 7.96, 12.03, 13.79, 0.000, 0.000, 0.000, 10:20:30.601, 7
70, 14.90, 14.84, 20.71, 17.12, 0.000, 0.000, 0.000, 10:20:30.602, 7
71, 18.01, 12.24, 19.29, 18.24, 0.000, 0.000, 0.000, 10:20:30.602, 7
72, 13.76, 10.31, 10.12, 14.25, 0.000, 0.000, 0.000, 10:20:30.603, 7
73, 12.47, 9.96, 13.79, 12.32, 0.000, 0.000, 0.000, 10:20:30.633, 7
74, 16.66, 16.51, 18.59, 17.21, 0.000, 0.000, 0.000, 10:20:30.633, 7
75, 13.93, 12.21, 17.37, 15.44, 0.000, 0.000, 0.000, 10:20:30.636, 7
76, 10.03, 9.22, 13.27, 13.05, 0.000, 0.000, 0.000, 10:20:30.636, 7
77, 11.48, 11.33, 12.22, 9.97, 0.000, 0.000, 0.000, 10:20:30.637, 7
78, 13.85, 14.19, 16.09, 17.03, 0.000, 0.000, 0.000, 10:20:30.637, 7
79, 13.48, 13.71, 17.86, 17.40, 0.000, 0.000, 0.000, 10:20:30.646, 7
80, 11.11, 8.74, 18.25, 11.73, 0.000, 0.000, 0.000, 10:20:30.646, 7
81, 15.83, 10.95, 14.73, 9.64, 0.000, 0.000, 0.000, 10:20:30.665, 7
82, 18.45, 12.18, 15.90, 14.74, 0.000, 0.000, 0.000, 10:20:30.665, 7
83, 15.03, 10.06, 17.74, 20.03, 0.000, 0.000, 0.000, 10:20:30.666, 7
84, 9.41, 11.74, 13.50, 11.36, 0.000, 0.000, 0.000, 10:20:30.666, 7
85, 3.72, 11.03, 16.52, 15.48, 0.000, 0.000, 0.000, 10:20:30.677, 7
86, 13.84, 15.32, 17.55, 14.34, 0.000, 0.000, 0.000, 10:20:30.677, 7
87, 16.29, 15.39, 18.15, 19.86, 0.000, 0.000, 0.000, 10:20:30.692, 7
88, 10.47, 8.95, 17.99, 15.29, 0.000, 0.000, 0.000, 10:20:30.693, 7
89, 14.91, 11.95, 15.31, 16.65, 0.000, 0.000, 0.000, 10:20:30.694, 7
90, 14.73, 13.76, 19.63, 16.63, 0.000, 0.000, 0.000, 10:20:30.694, 7
91, 14.90, 12.27, 17.70, 16.10, 0.000, 0.000, 0.000, 10:20:30.707, 7
92, 12.10, 9.67, 14.18, 11.83, 0.000, 0.000, 0.000, 10:20:30.708, 7
93, 11.31, 8.87, 14.39, 10.46, 0.000, 0.000, 0.000, 10:20:30.722, 7
94, 15.66, 11.30, 18.24, 21.68, 0.000, 0.000, 0.000, 10:20:30.722, 7
95, 13.63, 13.43, 22.50, 16.35, 0.000, 0.000, 0.000, 10:20:30.723, 7
96, 9.67, 7.80, 13.45, 16.74, 0.000, 0.000, 0.000, 10:20:30.723, 7
97, 12.22, 10.60, 13.30, 14.39, 0.000, 0.000, 0.000, 10:20:30.737, 7
98, 14.54, 17.74, 20.86, 18.13, 0.000, 0.000, 0.000, 10:20:30.738, 7
99, 20.67, 17.69, 20.70, 15.59, 0.000, 0.000, 0.000, 10:20:30.753, 7
100, 15.66, 13.40, 14.24, 15.40, 0.000, 0.000, 0.000, 10:20:30.753, 7
101, 18.32, 11.76, 14.32, 12.64, 0.000, 0.000, 0.000, 10:20:30.754, 7
102, 16.87, 12.63, 16.67, 18.56, 0.000, 0.000, 0.000, 10:20:30.754, 7
103, 18.88, 15.32, 19.20, 19.17, 0.000, 0.000, 0.000, 10:20:30.768, 7
104, 11.29, 11.15, 14.50, 16.49, 0.000, 0.000, 0.000, 10:20:30.768, 7
105, 12.97, 13.42, 15.68, 16.56, 0.000, 0.000, 0.000, 10:20:30.782, 7
106, 11.00, 12.49, 18.25, 16.64, 0.000, 0.000, 0.000, 10:20:30.783, 7
107, 15.72, 9.92, 16.81, 16.68, 0.000, 0.000, 0.000, 10:20:30.784, 7
108, 15.61, 9.55, 11.92, 11.66, 0.000, 0.000, 0.000, 10:20:30.784, 7
109, 10.26, 6.21, 14.92, 11.83, 0.000, 0.000, 0.000, 10:20:30.797, 7
110, 12.95, 11.57, 19.14, 16.60, 0.000, 0.000, 0.000, 10:20:30.798, 7
111, 13.18, 16.81, 20.01, 18.58, 0.000, 0.000, 0.000, 10:20:30.812, 7
112, 15.31, 11.83, 16.08, 16.64, 0.000, 0.000, 0.000, 10:20:30.812, 7
113, 16.62, 7.95, 13.94, 11.56, 0.000, 0.000, 0.000, 10:20:30.813, 7
114, 6.76, 13.52, 17.49, 13.12, 0.000, 0.000, 0.000, 10:20:30.814, 7
115, 17.55, 11.83, 17.83, 18.04, 0.000, 0.000, 0.000, 10:20:30.827, 7
116, 9.02, 10.26, 12.75, 11.06, 0.000, 0.000, 0.000, 10:20:30.828, 7
117, 13.01, 10.01, 17.06, 11.68, 0.000, 0.000, 0.000, 10:20:30.841, 7
118, 13.31, 12.65, 20.42, 17.50, 0.000, 0.000, 0.000, 10:20:30.841, 7
119, 13.37, 14.82, 19.39, 17.62, 0.000, 0.000, 0.000, 10:20:30.843, 7
120, 15.78, 13.00, 12.91, 10.57, 0.000, 0.000, 0.000, 10:20:30.843, 7
121, 14.01, 10.59, 14.03, 11.14, 0.000, 0.000, 0.000, 10:20:30.856, 7
122, 14.01, 15.08, 20.72, 15.85, 0.000, 0.000, 0.000, 10:20:30.856, 7
123, 20.22, 14.76, 21.04, 18.95, 0.000, 0.000, 0.000, 10:20:30.871, 7
124, 11.26, 15.20, 13.78, 14.68, 0.000, 0.000, 0.000, 10:20:30.871, 7
125, 14.42, 9.45, 13.33, 13.26, 0.000, 0.000, 0.000, 10:20:30.872, 7
126, 7.05, 14.55, 18.24, 14.17, 0.000, 0.000, 0.000, 10:20:30.872, 7
127, 15.03, 13.42, 15.50, 20.59, 0.000, 0.000, 0.000, 10:20:30.886, 7
128, 13.58, 6.49, 9.34, 12.29, 0.000, 0.000, 0.000, 10:20:30.886, 7
129, 13.33, 7.50, 10.71, 13.04, 0.000, 0.000, 0.000, 10:20:30.901, 7
130, 13.44, 13.48, 15.43, 18.88, 0.000, 0.000, 0.000, 10:20:30.901, 7
131, 17.00, 15.14, 18.44, 18.65, 0.000, 0.000, 0.000, 10:20:30.902, 7
132, 9.95, 10.67, 14.39, 14.42, 0.000, 0.000, 0.000, 10:20:30.902, 7
133, 13.23, 11.24, 11.72, 10.94, 0.000, 0.000, 0.000, 10:20:30.916, 7
134, 11.33, 15.31, 20.09, 15.98, 0.000, 0.000, 0.000, 10:20:30.916, 7
135, 17.96, 16.52, 21.67, 16.12, 0.000, 0.000, 0.000, 10:20:30.930, 7
136, 12.89, 9.25, 14.22, 17.21, 0.000, 0.000, 0.000, 10:20:30.931, 7
137, 6.25, 10.86, 9.54, 13.79, 0.000, 0.000, 0.000, 10:20:30.938, 7
138, 21.19, 16.34, 19.28, 24.10, 0.000, 0.000, 0.000, 10:20:30.938, 7
139, 17.59, 13.59, 20.08, 20.54, 0.000, 0.000, 0.000, 10:20:30.946, 7
140, 13.18, 9.88, 18.03, 13.96, 0.000, 0.000, 0.000, 10:20:30.946, 7
141, 12.51, 14.12, 19.27, 12.65, 0.000, 0.000, 0.000, 10:20:30.960, 7
142, 18.79, 16.24, 17.28, 18.36, 0.000, 0.000, 0.000, 10:20:30.961, 7
143, 14.11, 14.42, 23.18, 16.88, 0.000, 0.000, 0.000, 10:20:30.962, 7
144, 12.49, 9.90, 13.37, 15.30, 0.000, 0.000, 0.000, 10:20:30.963, 7
145, 9.13, 9.51, 10.89, 11.04, 0.000, 0.000, 0.000, 10:20:30.976, 7
146, 16.97, 13.85, 19.18, 16.21, 0.000, 0.000, 0.000, 10:20:30.977, 7
147, 16.67, 11.97, 21.37, 18.06, 0.000, 0.000, 0.000, 10:20:30.990, 7
148, 12.15, 11.95, 15.72, 13.54, 0.000, 0.000, 0.000, 10:20:30.991, 7
149, 10.68, 8.15, 18.16, 13.94, 0.000, 0.000, 0.000, 10:20:30.992, 7
150, 15.76, 14.94, 18.17, 15.35, 0.000, 0.000, 0.000, 10:20:30.993, 7
151, 13.27, 15.93, 18.07, 15.65, 0.000, 0.000, 0.000, 10:20:31.006, 7
152, 10.33, 13.08, 11.00, 11.51, 0.000, 0.000, 0.000, 10:20:31.007, 7
153, 10.40, 10.45, 14.99, 12.53, 0.000, 0.000, 0.000, 10:20:31.022, 7
154, 13.12, 13.32, 16.60, 17.25, 0.000, 0.000, 0.000, 10:20:31.022, 7
155, 16.03, 12.32, 15.87, 15.68, 0.000, 0.000, 0.000, 10:20:31.022, 7
156, 11.31, 9.38, 12.74, 12.56, 0.000, 0.000, 0.000, 10:20:31.023, 7
157, 12.49, 9.33, 10.48, 12.74, 0.000, 0.000, 0.000, 10:20:31.036, 7
158, 11.24, 15.12, 22.82, 19.89, 0.000, 0.000, 0.000, 10:20:31.037, 7
159, 14.28, 20.05, 22.13, 21.03, 0.000, 0.000, 0.000, 10:20:31.056, 7
160, 11.73, 12.72, 16.12, 11.83, 0.000, 0.000, 0.000, 10:20:31.056, 7
161, 8.92, 10.13, 14.68, 11.55, 0.000, 0.000, 0.000, 10:20:31.057, 7
162, 15.82, 13.33, 14.35, 16.02, 0.000, 0.000, 0.000, 10:20:31.057, 7
