%OpenBCI Raw EEG Data
%
%Sample Rate = 200.0 Hz
%First Column = SampleIndex
%Last Column = Timestamp 
%Other Columns = EEG data in microvolts followed by Accel Data (in G) interleaved with Aux Data
0, 11.57, 0.00, 0.00, 8.73, 0.000, 0.000, 0.000, 09:22:36.457, 5
1, 15.36, 0.00, 0.00, 18.76, 0.000, 0.000, 0.000, 09:22:36.479, 5
2, 18.47, 0.00, 0.00, 19.12, 0.000, 0.000, 0.000, 09:22:36.483, 5
3, 17.42, 0.00, 0.00, 21.39, 0.000, 0.000, 0.000, 09:22:36.486, 5
4, 12.40, 0.00, 0.00, 14.88, 0.000, 0.000, 0.000, 09:22:36.499, 5
5, 11.98, 0.00, 0.00, 13.38, 0.000, 0.000, 0.000, 09:22:36.501, 5
6, 15.89, 0.00, 0.00, 20.57, 0.000, 0.000, 0.000, 09:22:36.504, 5
7, 15.27, 0.00, 0.00, 20.84, 0.000, 0.000, 0.000, 09:22:36.506, 5
8, 12.55, 0.00, 0.00, 7.59, 0.000, 0.000, 0.000, 09:22:36.509, 5
9, 14.44, 0.00, 0.00, 22.78, 0.000, 0.000, 0.000, 09:22:36.512, 5
10, 18.74, 0.00, 0.00, 21.29, 0.000, 0.000, 0.000, 09:22:36.513, 5
11, 11.28, 0.00, 0.00, 12.07, 0.000, 0.000, 0.000, 09:22:36.515, 5
12, 13.74, 0.00, 0.00, 11.47, 0.000, 0.000, 0.000, 09:22:36.516, 5
13, 15.65, 0.00, 0.00, 20.26, 0.000, 0.000, 0.000, 09:22:36.522, 5
14, 19.01, 0.00, 0.00, 20.00, 0.000, 0.000, 0.000, 09:22:36.524, 5
15, 16.55, 0.00, 0.00, 19.97, 0.000, 0.000, 0.000, 09:22:36.538, 5
16, 14.88, 0.00, 0.00, 16.27, 0.000, 0.000, 0.000, 09:22:36.539, 5
17, 14.24, 0.00, 0.00, 16.19, 0.000, 0.000, 0.000, 09:22:36.539, 5
18, 18.34, 0.00, 0.00, 20.62, 0.000, 0.000, 0.000, 09:22:36.540, 5
19, 17.01, 0.00, 0.00, 17.74, 0.000, 0.000, 0.000, 09:22:36.552, 5
20, 13.30, 0.00, 0.00, 9.32, 0.000, 0.000, 0.000, 09:22:36.555, 5
21, 13.87, 0.00, 0.00, 15.35, 0.000, 0.000, 0.000, 09:22:36.573, 5
22, 19.07, 0.00, 0.00, 23.54, 0.000, 0.000, 0.000, 09:22:36.573, 5
23, 11.75, 0.00, 0.00, 15.54, 0.000, 0.000, 0.000, 09:22:36.574, 5
24, 16.41, 0.00, 0.00, 14.72, 0.000, 0.000, 0.000, 09:22:36.575, 5
25, 16.27, 0.00, 0.00, 17.74, 0.000, 0.000, 0.000, 09:22:36.582, 5
26, 16.84, 0.00, 0.00, 19.02, 0.000, 0.000, 0.000, 09:22:36.583, 5
27, 12.33, 0.00, 0.00, 17.54, 0.000, 0.000, 0.000, 09:22:36.596, 5
28, 15.92, 0.00, 0.00, 12.23, 0.000, 0.000, 0.000, 09:22:36.597, 5
29, 13.59, 0.00, 0.00, 16.28, 0.000, 0.000, 0.000, 09:22:36.612, 5
30, 16.16, 0.00, 0.00, 20.81, 0.000, 0.000, 0.000, 09:22:36.612, 5
31, 15.74, 0.00, 0.00, 16.27, 0.000, 0.000, 0.000, 09:22:36.612, 5
32, 13.38, 0.00, 0.00, 11.59, 0.000, 0.000, 0.000, 09:22:36.613, 5
33, 17.36, 0.00, 0.00, 18.78, 0.000, 0.000, 0.000, 09:22:36.643, 5
34, 17.18, 0.00, 0.00, 22.48, 0.000, 0.000, 0.000, 09:22:36.643, 5
35, 12.20, 0.00, 0.00, 15.34, 0.000, 0.000, 0.000, 09:22:36.644, 5
36, 14.69, 0.00, 0.00, 11.69, 0.000, 0.000, 0.000, 09:22:36.645, 5
37, 17.62, 0.00, 0.00, 17.77, 0.000, 0.000, 0.000, 09:22:36.646, 5
38, 18.30, 0.00, 0.00, 19.25, 0.000, 0.000, 0.000, 09:22:36.646, 5
39, 13.11, 0.00, 0.00, 16.37, 0.000, 0.000, 0.000, 09:22:36.646, 5
40, 14.84, 0.00, 0.00, 15.10, 0.000, 0.000, 0.000, 09:22:36.647, 5
41, 16.13, 0.00, 0.00, 16.32, 0.000, 0.000, 0.000, 09:22:36.657, 5
42, 19.77, 0.00, 0.00, 23.78, 0.000, 0.000, 0.000, 09:22:36.660, 5
43, 14.20, 0.00, 0.00, 14.79, 0.000, 0.000, 0.000, 09:22:36.672, 5
44, 12.50, 0.00, 0.00, 11.25, 0.000, 0.000, 0.000, 09:22:36.675, 5
45, 14.17, 0.00, 0.00, 15.05, 0.000, 0.000, 0.000, 09:22:36.687, 5
46, 18.01, 0.00, 0.00, 20.26, 0.000, 0.000, 0.000, 09:22:36.688, 5
47, 18.07, 0.00, 0.00, 12.34, 0.000, 0.000, 0.000, 09:22:36.688, 5
48, 14.70, 0.00, 0.00, 11.98, 0.000, 0.000, 0.000, 09:22:36.689, 5
49, 15.55, 0.00, 0.00, 19.23, 0.000, 0.000, 0.000, 09:22:36.716, 5
50, 15.79, 0.00, 0.00, 17.19, 0.000, 0.000, 0.000, 09:22:36.717, 5
51, 16.55, 0.00, 0.00, 18.63, 0.000, 0.000, 0.000, 09:22:36.718, 5
52, 11.31, 0.00, 0.00, 11.69, 0.000, 0.000, 0.000, 09:22:36.718, 5
53, 19.07, 0.00, 0.00, 19.33, 0.000, 0.000, 0.000, 09:22:36.718, 5
54, 20.41, 0.00, 0.00, 22.21, 0.000, 0.000, 0.000, 09:22:36.720, 5
55, 15.63, 0.00, 0.00, 19.63, 0.000, 0.000, 0.000, 09:22:36.732, 5
56, 11.42, 0.00, 0.00, 11.38, 0.000, 0.000, 0.000, 09:22:36.732, 5
57, 14.69, 0.00, 0.00, 21.72, 0.000, 0.000, 0.000, 09:22:36.746, 5
58, 16.70, 0.00, 0.00, 19.68, 0.000, 0.000, 0.000, 09:22:36.747, 5
59, 12.85, 0.00, 0.00, 13.76, 0.000, 0.000, 0.000, 09:22:36.747, 5
60, 14.52, 0.00, 0.00, 12.51, 0.000, 0.000, 0.000, 09:22:36.748, 5
61, 13.95, 0.00, 0.00, 16.04, 0.000, 0.000, 0.000, 09:22:36.762, 5
62, 20.13, 0.00, 0.00, 18.25, 0.000, 0.000, 0.000, 09:22:36.763, 5
63, 15.35, 0.00, 0.00, 14.25, 0.000, 0.000, 0.000, 09:22:36.777, 5
64, 12.16, 0.00, 0.00, 13.36, 0.000, 0.000, 0.000, 09:22:36.778, 5
65, 13.34, 0.00, 0.00, 15.17, 0.000, 0.000, 0.000, 09:22:36.779, 5
66, 19.68, 0.00, 0.00, 22.00, 0.000, 0.000, 0.000, 09:22:36.780, 5
67, 10.37, 0.00, 0.00, 21.97, 0.000, 0.000, 0.000, 09:22:36.792, 5
68, 13.21, 0.00, 0.00, 11.38, 0.000, 0.000, 0.000, 09:22:36.793, 5
69, 16.31, 0.00, 0.00, 19.13, 0.000, 0.000, 0.000, 09:22:36.807, 5
70, 20.43, 0.00, 0.00, 21.41, 0.000, 0.000, 0.000, 09:22:36.808, 5
71, 16.57, 0.00, 0.00, 11.52, 0.000, 0.000, 0.000, 09:22:36.808, 5
72, 11.11, 0.00, 0.00, 15.64, 0.000, 0.000, 0.000, 09:22:36.808, 5
73, 12.18, 0.00, 0.00, 19.92, 0.000, 0.000, 0.000, 09:22:36.822, 5
74, 19.45, 0.00, 0.00, 19.28, 0.000, 0.000, 0.000, 09:22:36.823, 5
75, 14.54, 0.00, 0.00, 17.40, 0.000, 0.000, 0.000, 09:22:36.852, 5
76, 11.73, 0.00, 0.00, 11.31, 0.000, 0.000, 0.000, 09:22:36.852, 5
77, 15.58, 0.00, 0.00, 14.27, 0.000, 0.000, 0.000, 09:22:36.852, 5
78, 17.57, 0.00, 0.00, 22.27, 0.000, 0.000, 0.000, 09:22:36.853, 5
79, 12.78, 0.00, 0.00, 10.50, 0.000, 0.000, 0.000, 09:22:36.855, 5
80, 8.96, 0.00, 0.00, 6.84, 0.000, 0.000, 0.000, 09:22:36.855, 5
81, 20.09, 0.00, 0.00, 18.88, 0.000, 0.000, 0.000, 09:22:36.857, 5
82, 18.49, 0.00, 0.00, 23.17, 0.000, 0.000, 0.000, 09:22:36.858, 5
83, 10.89, 0.00, 0.00, 12.64, 0.000, 0.000, 0.000, 09:22:36.867, 5
84, 10.45, 0.00, 0.00, 12.03, 0.000, 0.000, 0.000, 09:22:36.867, 5
85, 15.71, 0.00, 0.00, 20.03, 0.000, 0.000, 0.000, 09:22:36.882, 5
86, 15.80, 0.00, 0.00, 15.50, 0.000, 0.000, 0.000, 09:22:36.882, 5
87, 13.98, 0.00, 0.00, 12.11, 0.000, 0.000, 0.000, 09:22:36.912, 5
88, 12.69, 0.00, 0.00, 12.21, 0.000, 0.000, 0.000, 09:22:36.912, 5
89, 15.85, 0.00, 0.00, 19.77, 0.000, 0.000, 0.000, 09:22:36.912, 5
90, 16.73, 0.00, 0.00, 24.97, 0.000, 0.000, 0.000, 09:22:36.912, 5
91, 13.92, 0.00, 0.00, 15.14, 0.000, 0.000, 0.000, 09:22:36.913, 5
92, 12.59, 0.00, 0.00, 12.25, 0.000, 0.000, 0.000, 09:22:36.913, 5
93, 17.54, 0.00, 0.00, 22.29, 0.000, 0.000, 0.000, 09:22:36.914, 5
94, 20.93, 0.00, 0.00, 21.52, 0.000, 0.000, 0.000, 09:22:36.914, 5
95, 9.68, 0.00, 0.00, 15.15, 0.000, 0.000, 0.000, 09:22:36.927, 5
96, 16.07, 0.00, 0.00, 14.96, 0.000, 0.000, 0.000, 09:22:36.927, 5
97, 15.74, 0.00, 0.00, 17.75, 0.000, 0.000, 0.000, 09:22:36.942, 5
98, 15.27, 0.00, 0.00, 15.90, 0.000, 0.000, 0.000, 09:22:36.942, 5
99, 15.63, 0.00, 0.00, 18.25, 0.000, 0.000, 0.000, 09:22:36.958, 5
100, 15.62, 0.00, 0.00, 13.27, 0.000, 0.000, 0.000, 09:22:36.958, 5
101, 13.81, 0.00, 0.00, 14.48, 0.000, 0.000, 0.000, 09:22:36.959, 5
102, 18.96, 0.00, 0.00, 18.44, 0.000, 0.000, 0.000, 09:22:36.959, 5
103, 12.92, 0.00, 0.00, 17.20, 0.000, 0.000, 0.000, 09:22:36.971, 5
104, 12.96, 0.00, 0.00, 9.35, 0.000, 0.000, 0.000, 09:22:36.972, 5
105, 17.59, 0.00, 0.00, 19.24, 0.000, 0.000, 0.000, 09:22:36.987, 5
106, 22.53, 0.00, 0.00, 20.41, 0.000, 0.000, 0.000, 09:22:36.988, 5
107, 17.77, 0.00, 0.00, 14.32, 0.000, 0.000, 0.000, 09:22:36.989, 5
108, 12.46, 0.00, 0.00, 11.24, 0.000, 0.000, 0.000, 09:22:36.989, 5
109, 17.24, 0.00, 0.00, 21.24, 0.000, 0.000, 0.000, 09:22:37.001, 5
110, 17.32, 0.00, 0.00, 22.95, 0.000, 0.000, 0.000, 09:22:37.002, 5
111, 18.06, 0.00, 0.00, 15.45, 0.000, 0.000, 0.000, 09:22:37.017, 5
112, 13.55, 0.00, 0.00, 13.90, 0.000, 0.000, 0.000, 09:22:37.017, 5
113, 15.10, 0.00, 0.00, 12.70, 0.000, 0.000, 0.000, 09:22:37.018, 5
114, 19.08, 0.00, 0.00, 24.25, 0.000, 0.000, 0.000, 09:22:37.018, 5
115, 15.32, 0.00, 0.00, 17.08, 0.000, 0.000, 0.000, 09:22:37.032, 5
116, 10.66, 0.00, 0.00, 11.47, 0.000, 0.000, 0.000, 09:22:37.032, 5
117, 11.30, 0.00, 0.00, 17.06, 0.000, 0.000, 0.000, 09:22:37.047, 5
118, 17.96, 0.00, 0.00, 21.91, 0.000, 0.000, 0.000, 09:22:37.047, 5
119, 14.02, 0.00, 0.00, 13.23, 0.000, 0.000, 0.000, 09:22:37.047, 5
120, 11.02, 0.00, 0.00, 15.12, 0.000, 0.000, 0.000, 09:22:37.047, 5
121, 13.97, 0.00, 0.00, 20.82, 0.000, 0.000, 0.000, 09:22:37.061, 5
122, 18.58, 0.00, 0.00, 17.07, 0.000, 0.000, 0.000, 09:22:37.063, 5
123, 16.35, 0.00, 0.00, 16.14, 0.000, 0.000, 0.000, 09:22:37.077, 5
124, 12.25, 0.00, 0.00, 15.07, 0.000, 0.000, 0.000, 09:22:37.077, 5
125, 15.19, 0.00, 0.00, 10.91, 0.000, 0.000, 0.000, 09:22:37.077, 5
126, 18.78, 0.00, 0.00, 23.60, 0.000, 0.000, 0.000, 09:22:37.077, 5
127, 14.94, 0.00, 0.00, 16.24, 0.000, 0.000, 0.000, 09:22:37.091, 5
128, 13.07, 0.00, 0.00, 10.12, 0.000, 0.000, 0.000, 09:22:37.091, 5
129, 19.50, 0.00, 0.00, 20.20, 0.000, 0.000, 0.000, 09:22:37.122, 5
130, 20.70, 0.00, 0.00, 23.58, 0.000, 0.000, 0.000, 09:22:37.123, 5
131, 9.96, 0.00, 0.00, 12.61, 0.000, 0.000, 0.000, 09:22:37.123, 5
132, 14.52, 0.00, 0.00, 12.26, 0.000, 0.000, 0.000, 09:22:37.124, 5
133, 12.60, 0.00, 0.00, 20.82, 0.000, 0.000, 0.000, 09:22:37.124, 5
134, 19.31, 0.00, 0.00, 15.67, 0.000, 0.000, 0.000, 09:22:37.124, 5
135, 14.19, 0.00, 0.00, 16.59, 0.000, 0.000, 0.000, 09:22:37.124, 5
136, 9.22, 0.00, 0.00, 10.27, 0.000, 0.000, 0.000, 09:22:37.125, 5
137, 15.34, 0.00, 0.00, 15.97, 0.000, 0.000, 0.000, 09:22:37.138, 5
138, 19.62, 0.00, 0.00, 22.17, 0.000, 0.000, 0.000, 09:22:37.138, 5
139, 13.36, 0.00, 0.00, 20.44, 0.000, 0.000, 0.000, 09:22:37.152, 5
140, 9.15, 0.00, 0.00, 11.20, 0.000, 0.000, 0.000, 09:22:37.153, 5
141, 16.63, 0.00, 0.00, 19.73, 0.000, 0.000, 0.000, 09:22:37.167, 5
142, 18.68, 0.00, 0.00, 19.87, 0.000, 0.000, 0.000, 09:22:37.167, 5
143, 16.83, 0.00, 0.00, 16.65, 0.000, 0.000, 0.000, 09:22:37.167, 5
144, 12.17, 0.00, 0.00, 12.49, 0.000, 0.000, 0.000, 09:22:37.168, 5
145, 14.45, 0.00, 0.00, 18.39, 0.000, 0.000, 0.000, 09:22:37.182, 5
146, 21.18, 0.00, 0.00, 21.34, 0.000, 0.000, 0.000, 09:22:37.182, 5
147, 12.10, 0.00, 0.00, 14.18, 0.000, 0.000, 0.000, 09:22:37.197, 5
148, 14.36, 0.00, 0.00, 13.77, 0.000, 0.000, 0.000, 09:22:37.197, 5
149, 14.37, 0.00, 0.00, 13.58, 0.000, 0.000, 0.000, 09:22:37.197, 5
150, 23.90, 0.00, 0.00, 18.97, 0.000, 0.000, 0.000, 09:22:37.198, 5
151, 13.59, 0.00, 0.00, 15.65, 0.000, 0.000, 0.000, 09:22:37.212, 5
152, 9.61, 0.00, 0.00, 8.40, 0.000, 0.000, 0.000, 09:22:37.212, 5
153, 18.57, 0.00, 0.00, 17.68, 0.000, 0.000, 0.000, 09:22:37.228, 5
154, 16.31, 0.00, 0.00, 23.46, 0.000, 0.000, 0.000, 09:22:37.228, 5
155, 11.69, 0.00, 0.00, 14.47, 0.000, 0.000, 0.000, 09:22:37.228, 5
156, 12.47, 0.00, 0.00, 14.21, 0.000, 0.000, 0.000, 09:22:37.228, 5
157, 15.83, 0.00, 0.00, 17.66, 0.000, 0.000, 0.000, 09:22:37.243, 5
158, 17.43, 0.00, 0.00, 18.52, 0.000, 0.000, 0.000, 09:22:37.243, 5
159, 16.00, 0.00, 0.00, 11.42, 0.000, 0.000, 0.000, 09:22:37.259, 5
160, 10.87, 0.00, 0.00, 16.01, 0.000, 0.000, 0.000, 09:22:37.259, 5
161, 17.18, 0.00, 0.00, 19.07, 0.000, 0.000, 0.000, 09:22:37.260, 5
162, 21.08, 0.00, 0.00, 22.48, 0.000, 0.000, 0.000, 09:22:37.260, 5
163, 15.31, 0.00, 0.00, 16.79, 0.000, 0.000, 0.000, 09:22:37.273, 5
164, 11.53, 0.00, 0.00, 14.44, 0.000, 0.000, 0.000, 09:22:37.273, 5
165, 19.28, 0.00, 0.00, 22.13, 0.000, 0.000, 0.000, 09:22:37.302, 5
166, 18.63, 0.00, 0.00, 19.61, 0.000, 0.000, 0.000, 09:22:37.302, 5
167, 13.52, 0.00, 0.00, 11.43, 0.000, 0.000, 0.000, 09:22:37.302, 5
168, 15.81, 0.00, 0.00, 13.06, 0.000, 0.000, 0.000, 09:22:37.303, 5
169, 14.50, 0.00, 0.00, 21.11, 0.000, 0.000, 0.000, 09:22:37.304, 5
170, 16.46, 0.00, 0.00, 18.10, 0.000, 0.000, 0.000, 09:22:37.305, 5
171, 13.34, 0.00, 0.00, 17.42, 0.000, 0.000, 0.000, 09:22:37.306, 5
172, 10.90, 0.00, 0.00, 12.96, 0.000, 0.000, 0.000, 09:22:37.306, 5
173, 13.57, 0.00, 0.00, 17.32, 0.000, 0.000, 0.000, 09:22:37.332, 5
174, 19.17, 0.00, 0.00, 19.92, 0.000, 0.000, 0.000, 09:22:37.332, 5
175, 15.74, 0.00, 0.00, 14.42, 0.000, 0.000, 0.000, 09:22:37.333, 5
176, 11.19, 0.00, 0.00, 11.85, 0.000, 0.000, 0.000, 09:22:37.333, 5
177, 17.07, 0.00, 0.00, 18.21, 0.000, 0.000, 0.000, 09:22:37.347, 5
178, 21.05, 0.00, 0.00, 23.79, 0.000, 0.000, 0.000, 09:22:37.347, 5
179, 13.68, 0.00, 0.00, 15.80, 0.000, 0.000, 0.000, 09:22:37.348, 5
180, 11.79, 0.00, 0.00, 16.17, 0.000, 0.000, 0.000, 09:22:37.348, 5
181, 17.05, 0.00, 0.00, 18.62, 0.000, 0.000, 0.000, 09:22:37.362, 5
182, 18.50, 0.00, 0.00, 19.34, 0.000, 0.000, 0.000, 09:22:37.362, 5
183, 14.51, 0.00, 0.00, 13.01, 0.000, 0.000, 0.000, 09:22:37.377, 5
184, 12.36, 0.00, 0.00, 11.76, 0.000, 0.000, 0.000, 09:22:37.377, 5
185, 16.45, 0.00, 0.00, 14.09, 0.000, 0.000, 0.000, 09:22:37.378, 5
186, 17.95, 0.00, 0.00, 22.32, 0.000, 0.000, 0.000, 09:22:37.378, 5
187, 14.68, 0.00, 0.00, 13.34, 0.000, 0.000, 0.000, 09:22:37.407, 5
188, 11.98, 0.00, 0.00, 12.18, 0.000, 0.000, 0.000, 09:22:37.407, 5
189, 17.07, 0.00, 0.00, 19.24, 0.000, 0.000, 0.000, 09:22:37.408, 5
190, 13.96, 0.00, 0.00, 19.59, 0.000, 0.000, 0.000, 09:22:37.408, 5
191, 15.72, 0.00, 0.00, 13.18, 0.000, 0.000, 0.000, 09:22:37.415, 5
192, 11.15, 0.00, 0.00, 12.16, 0.000, 0.000, 0.000, 09:22:37.415, 5
193, 15.77, 0.00, 0.00, 19.58, 0.000, 0.000, 0.000, 09:22:37.421, 5
194, 20.51, 0.00, 0.00, 17.34, 0.000, 0.000, 0.000, 09:22:37.422, 5
195, 14.34, 0.00, 0.00, 18.23, 0.000, 0.000, 0.000, 09:22:37.438, 5
196, 8.15, 0.00, 0.00, 10.55, 0.000, 0.000, 0.000, 09:22:37.438, 5
197, 11.75, 0.00, 0.00, 13.20, 0.000, 0.000, 0.000, 09:22:37.439, 5
198, 19.71, 0.00, 0.00, 20.39, 0.000, 0.000, 0.000, 09:22:37.439, 5
199, 14.25, 0.00, 0.00, 14.68, 0.000, 0.000, 0.000, 09:22:37.452, 5
200, 8.24, 0.00, 0.00, 11.35, 0.000, 0.000, 0.000, 09:22:37.452, 5
0, 17.25, 0.00, 0.00, 21.65, 0.000, 0.000, 0.000, 09:22:37.453, 5
1, 17.32, 0.00, 0.00, 20.80, 0.000, 0.000, 0.000, 09:22:37.467, 5
2, 12.49, 0.00, 0.00, 14.66, 0.000, 0.000, 0.000, 09:22:37.467, 5
3, 13.69, 0.00, 0.00, 12.08, 0.000, 0.000, 0.000, 09:22:37.481, 5
4, 19.16, 0.00, 0.00, 20.76, 0.000, 0.000, 0.000, 09:22:37.482, 5
5, 16.23, 0.00, 0.00, 15.65, 0.000, 0.000, 0.000, 09:22:37.482, 5
6, 14.93, 0.00, 0.00, 16.47, 0.000, 0.000, 0.000, 09:22:37.482, 5
7, 13.63, 0.00, 0.00, 10.96, 0.000, 0.000, 0.000, 09:22:37.512, 5
8, 16.17, 0.00, 0.00, 16.84, 0.000, 0.000, 0.000, 09:22:37.513, 5
9, 16.37, 0.00, 0.00, 22.94, 0.000, 0.000, 0.000, 09:22:37.513, 5
10, 15.01, 0.00, 0.00, 15.70, 0.000, 0.000, 0.000, 09:22:37.513, 5
11, 12.78, 0.00, 0.00, 10.28, 0.000, 0.000, 0.000, 09:22:37.513, 5
12, 17.44, 0.00, 0.00, 22.65, 0.000, 0.000, 0.000, 09:22:37.514, 5
13, 21.10, 0.00, 0.00, 21.35, 0.000, 0.000, 0.000, 09:22:37.544, 5
14, 15.77, 0.00, 0.00, 13.82, 0.000, 0.000, 0.000, 09:22:37.544, 5
15, 12.03, 0.00, 0.00, 11.95, 0.000, 0.000, 0.000, 09:22:37.544, 5
16, 19.85, 0.00, 0.00, 21.79, 0.000, 0.000, 0.000, 09:22:37.545, 5
17, 17.43, 0.00, 0.00, 20.56, 0.000, 0.000, 0.000, 09:22:37.545, 5
18, 13.03, 0.00, 0.00, 15.53, 0.000, 0.000, 0.000, 09:22:37.545, 5
19, 17.23, 0.00, 0.00, 13.46, 0.000, 0.000, 0.000, 09:22:37.557, 5
20, 20.09, 0.00, 0.00, 17.00, 0.000, 0.000, 0.000, 09:22:37.558, 5
21, 18.93, 0.00, 0.00, 23.54, 0.000, 0.000, 0.000, 09:22:37.572, 5
22, 12.53, 0.00, 0.00, 15.53, 0.000, 0.000, 0.000, 09:22:37.573, 5
23, 10.13, 0.00, 0.00, 12.71, 0.000, 0.000, 0.000, 09:22:37.573, 5
24, 14.90, 0.00, 0.00, 16.65, 0.000, 0.000, 0.000, 09:22:37.573, 5
25, 19.73, 0.00, 0.00, 21.90, 0.000, 0.000, 0.000, 09:22:37.588, 5
26, 13.10, 0.00, 0.00, 13.99, 0.000, 0.000, 0.000, 09:22:37.589, 5
27, 9.47, 0.00, 0.00, 12.92, 0.000, 0.000, 0.000, 09:22:37.603, 5
28, 16.09, 0.00, 0.00, 16.01, 0.000, 0.000, 0.000, 09:22:37.603, 5
29, 19.74, 0.00, 0.00, 16.87, 0.000, 0.000, 0.000, 09:22:37.618, 5
30, 11.73, 0.00, 0.00, 15.08, 0.000, 0.000, 0.000, 09:22:37.618, 5
31, 12.06, 0.00, 0.00, 11.42, 0.000, 0.000, 0.000, 09:22:37.619, 5
32, 15.97, 0.00, 0.00, 15.39, 0.000, 0.000, 0.000, 09:22:37.619, 5
33, 15.60, 0.00, 0.00, 21.57, 0.000, 0.000, 0.000, 09:22:37.633, 5
34, 15.05, 0.00, 0.00, 14.54, 0.000, 0.000, 0.000, 09:22:37.633, 5
35, 17.53, 0.00, 0.00, 13.91, 0.000, 0.000, 0.000, 09:22:37.633, 5
36, 16.49, 0.00, 0.00, 22.60, 0.000, 0.000, 0.000, 09:22:37.634, 5
37, 16.78, 0.00, 0.00, 21.55, 0.000, 0.000, 0.000, 09:22:37.647, 5
38, 10.74, 0.00, 0.00, 8.95, 0.000, 0.000, 0.000, 09:22:37.647, 5
39, 17.82, 0.00, 0.00, 15.24, 0.000, 0.000, 0.000, 09:22:37.677, 5
40, 17.17, 0.00, 0.00, 18.67, 0.000, 0.000, 0.000, 09:22:37.677, 5
41, 14.57, 0.00, 0.00, 18.17, 0.000, 0.000, 0.000, 09:22:37.677, 5
42, 16.78, 0.00, 0.00, 15.38, 0.000, 0.000, 0.000, 09:22:37.677, 5
43, 14.00, 0.00, 0.00, 10.22, 0.000, 0.000, 0.000, 09:22:37.678, 5
44, 13.05, 0.00, 0.00, 12.32, 0.000, 0.000, 0.000, 09:22:37.678, 5
45, 20.87, 0.00, 0.00, 24.68, 0.000, 0.000, 0.000, 09:22:37.679, 5
46, 10.58, 0.00, 0.00, 18.82, 0.000, 0.000, 0.000, 09:22:37.679, 5
47, 11.97, 0.00, 0.00, 10.25, 0.000, 0.000, 0.000, 09:22:37.691, 5
48, 14.83, 0.00, 0.00, 17.35, 0.000, 0.000, 0.000, 09:22:37.692, 5
49, 19.79, 0.00, 0.00, 25.21, 0.000, 0.000, 0.000, 09:22:37.708, 5
50, 11.79, 0.00, 0.00, 11.00, 0.000, 0.000, 0.000, 09:22:37.708, 5
51, 9.94, 0.00, 0.00, 14.70, 0.000, 0.000, 0.000, 09:22:37.724, 5
52, 16.79, 0.00, 0.00, 18.82, 0.000, 0.000, 0.000, 09:22:37.725, 5
53, 15.28, 0.00, 0.00, 13.27, 0.000, 0.000, 0.000, 09:22:37.725, 5
54, 12.51, 0.00, 0.00, 14.12, 0.000, 0.000, 0.000, 09:22:37.725, 5
55, 13.32, 0.00, 0.00, 12.95, 0.000, 0.000, 0.000, 09:22:37.752, 5
56, 18.39, 0.00, 0.00, 17.66, 0.000, 0.000, 0.000, 09:22:37.752, 5
57, 18.17, 0.00, 0.00, 24.55, 0.000, 0.000, 0.000, 09:22:37.753, 5
58, 15.31, 0.00, 0.00, 14.67, 0.000, 0.000, 0.000, 09:22:37.753, 5
59, 11.99, 0.00, 0.00, 16.56, 0.000, 0.000, 0.000, 09:22:37.755, 5
60, 21.96, 0.00, 0.00, 22.12, 0.000, 0.000, 0.000, 09:22:37.755, 5
61, 16.63, 0.00, 0.00, 18.62, 0.000, 0.000, 0.000, 09:22:37.767, 5
62, 11.15, 0.00, 0.00, 11.49, 0.000, 0.000, 0.000, 09:22:37.767, 5
63, 12.87, 0.00, 0.00, 16.51, 0.000, 0.000, 0.000, 09:22:37.782, 5
64, 18.42, 0.00, 0.00, 18.60, 0.000, 0.000, 0.000, 09:22:37.783, 5
65, 17.94, 0.00, 0.00, 19.68, 0.000, 0.000, 0.000, 09:22:37.783, 5
66, 17.05, 0.00, 0.00, 13.12, 0.000, 0.000, 0.000, 09:22:37.783, 5
67, 16.55, 0.00, 0.00, 15.98, 0.000, 0.000, 0.000, 09:22:37.797, 5
68, 17.85, 0.00, 0.00, 18.26, 0.000, 0.000, 0.000, 09:22:37.797, 5
69, 15.74, 0.00, 0.00, 20.35, 0.000, 0.000, 0.000, 09:22:37.826, 5
70, 11.25, 0.00, 0.00, 13.02, 0.000, 0.000, 0.000, 09:22:37.827, 5
71, 12.60, 0.00, 0.00, 14.00, 0.000, 0.000, 0.000, 09:22:37.827, 5
72, 16.66, 0.00, 0.00, 19.88, 0.000, 0.000, 0.000, 09:22:37.827, 5
73, 15.90, 0.00, 0.00, 21.05, 0.000, 0.000, 0.000, 09:22:37.828, 5
74, 12.39, 0.00, 0.00, 14.69, 0.000, 0.000, 0.000, 09:22:37.828, 5
75, 16.24, 0.00, 0.00, 15.99, 0.000, 0.000, 0.000, 09:22:37.828, 5
76, 17.11, 0.00, 0.00, 20.77, 0.000, 0.000, 0.000, 09:22:37.828, 5
77, 18.32, 0.00, 0.00, 17.38, 0.000, 0.000, 0.000, 09:22:37.857, 5
78, 13.44, 0.00, 0.00, 15.74, 0.000, 0.000, 0.000, 09:22:37.858, 5
79, 9.39, 0.00, 0.00, 10.02, 0.000, 0.000, 0.000, 09:22:37.858, 5
80, 14.96, 0.00, 0.00, 14.19, 0.000, 0.000, 0.000, 09:22:37.858, 5
81, 15.28, 0.00, 0.00, 22.15, 0.000, 0.000, 0.000, 09:22:37.871, 5
82, 11.06, 0.00, 0.00, 14.86, 0.000, 0.000, 0.000, 09:22:37.872, 5
83, 8.23, 0.00, 0.00, 10.23, 0.000, 0.000, 0.000, 09:22:37.872, 5
84, 21.51, 0.00, 0.00, 22.30, 0.000, 0.000, 0.000, 09:22:37.873, 5
85, 22.83, 0.00, 0.00, 19.64, 0.000, 0.000, 0.000, 09:22:37.888, 5
86, 12.77, 0.00, 0.00, 9.03, 0.000, 0.000, 0.000, 09:22:37.888, 5
87, 12.59, 0.00, 0.00, 15.54, 0.000, 0.000, 0.000, 09:22:37.903, 5
88, 15.80, 0.00, 0.00, 19.95, 0.000, 0.000, 0.000, 09:22:37.903, 5
89, 12.61, 0.00, 0.00, 15.83, 0.000, 0.000, 0.000, 09:22:37.904, 5
90, 12.99, 0.00, 0.00, 15.46, 0.000, 0.000, 0.000, 09:22:37.904, 5
91, 13.74, 0.00, 0.00, 18.70, 0.000, 0.000, 0.000, 09:22:37.920, 5
92, 18.15, 0.00, 0.00, 16.41, 0.000, 0.000, 0.000, 09:22:37.923, 5
93, 17.68, 0.00, 0.00, 19.65, 0.000, 0.000, 0.000, 09:22:37.932, 5
94, 12.73, 0.00, 0.00, 17.36, 0.000, 0.000, 0.000, 09:22:37.933, 5
95, 14.77, 0.00, 0.00, 14.39, 0.000, 0.000, 0.000, 09:22:37.934, 5
96, 18.06, 0.00, 0.00, 19.87, 0.000, 0.000, 0.000, 09:22:37.934, 5
97, 18.86, 0.00, 0.00, 20.97, 0.000, 0.000, 0.000, 09:22:37.962, 5
98, 12.60, 0.00, 0.00, 9.77, 0.000, 0.000, 0.000, 09:22:37.963, 5
99, 12.77, 0.00, 0.00, 15.54, 0.000, 0.000, 0.000, 09:22:37.963, 5
100, 17.94, 0.00, 0.00, 20.69, 0.000, 0.000, 0.000, 09:22:37.963, 5
101, 14.73, 0.00, 0.00, 15.86, 0.000, 0.000, 0.000, 09:22:37.964, 5
102, 14.17, 0.00, 0.00, 16.23, 0.000, 0.000, 0.000, 09:22:37.964, 5
103, 14.75, 0.00, 0.00, 13.31, 0.000, 0.000, 0.000, 09:22:37.993, 5
104, 15.16, 0.00, 0.00, 17.35, 0.000, 0.000, 0.000, 09:22:37.995, 5
105, 18.34, 0.00, 0.00, 21.98, 0.000, 0.000, 0.000, 09:22:37.997, 5
106, 12.92, 0.00, 0.00, 16.80, 0.000, 0.000, 0.000, 09:22:37.998, 5
107, 14.00, 0.00, 0.00, 14.07, 0.000, 0.000, 0.000, 09:22:37.999, 5
108, 17.07, 0.00, 0.00, 19.45, 0.000, 0.000, 0.000, 09:22:37.999, 5
109, 19.48, 0.00, 0.00, 19.94, 0.000, 0.000, 0.000, 09:22:38.008, 5
110, 14.84, 0.00, 0.00, 11.52, 0.000, 0.000, 0.000, 09:22:38.009, 5
111, 11.99, 0.00, 0.00, 17.44, 0.000, 0.000, 0.000, 09:22:38.023, 5
112, 16.18, 0.00, 0.00, 22.00, 0.000, 0.000, 0.000, 09:22:38.024, 5
113, 20.05, 0.00, 0.00, 15.94, 0.000, 0.000, 0.000, 09:22:38.025, 5
114, 10.98, 0.00, 0.00, 13.03, 0.000, 0.000, 0.000, 09:22:38.025, 5
115, 13.49, 0.00, 0.00, 15.12, 0.000, 0.000, 0.000, 09:22:38.038, 5
116, 16.06, 0.00, 0.00, 16.13, 0.000, 0.000, 0.000, 09:22:38.038, 5
117, 16.79, 0.00, 0.00, 20.17, 0.000, 0.000, 0.000, 09:22:38.052, 5
118, 12.29, 0.00, 0.00, 12.46, 0.000, 0.000, 0.000, 09:22:38.053, 5
119, 15.57, 0.00, 0.00, 10.63, 0.000, 0.000, 0.000, 09:22:38.067, 5
120, 17.28, 0.00, 0.00, 20.94, 0.000, 0.000, 0.000, 09:22:38.067, 5
121, 16.81, 0.00, 0.00, 20.51, 0.000, 0.000, 0.000, 09:22:38.067, 5
122, 14.25, 0.00, 0.00, 11.67, 0.000, 0.000, 0.000, 09:22:38.068, 5
123, 14.13, 0.00, 0.00, 13.28, 0.000, 0.000, 0.000, 09:22:38.097, 5
124, 19.18, 0.00, 0.00, 20.54, 0.000, 0.000, 0.000, 09:22:38.097, 5
125, 14.50, 0.00, 0.00, 18.70, 0.000, 0.000, 0.000, 09:22:38.097, 5
126, 15.47, 0.00, 0.00, 15.24, 0.000, 0.000, 0.000, 09:22:38.098, 5
127, 11.20, 0.00, 0.00, 12.76, 0.000, 0.000, 0.000, 09:22:38.098, 5
128, 16.29, 0.00, 0.00, 17.19, 0.000, 0.000, 0.000, 09:22:38.098, 5
129, 20.35, 0.00, 0.00, 22.73, 0.000, 0.000, 0.000, 09:22:38.099, 5
130, 13.93, 0.00, 0.00, 16.08, 0.000, 0.000, 0.000, 09:22:38.099, 5
131, 10.10, 0.00, 0.00, 10.45, 0.000, 0.000, 0.000, 09:22:38.113, 5
132, 22.20, 0.00, 0.00, 21.82, 0.000, 0.000, 0.000, 09:22:38.114, 5
133, 15.55, 0.00, 0.00, 17.10, 0.000, 0.000, 0.000, 09:22:38.127, 5
134, 13.28, 0.00, 0.00, 15.61, 0.000, 0.000, 0.000, 09:22:38.128, 5
135, 16.70, 0.00, 0.00, 14.42, 0.000, 0.000, 0.000, 09:22:38.142, 5
136, 16.83, 0.00, 0.00, 17.67, 0.000, 0.000, 0.000, 09:22:38.142, 5
137, 17.82, 0.00, 0.00, 17.20, 0.000, 0.000, 0.000, 09:22:38.143, 5
138, 15.04, 0.00, 0.00, 13.61, 0.000, 0.000, 0.000, 09:22:38.143, 5
139, 11.50, 0.00, 0.00, 14.57, 0.000, 0.000, 0.000, 09:22:38.157, 5
140, 18.36, 0.00, 0.00, 17.19, 0.000, 0.000, 0.000, 09:22:38.158, 5
141, 17.57, 0.00, 0.00, 26.29, 0.000, 0.000, 0.000, 09:22:38.172, 5
142, 13.61, 0.00, 0.00, 13.42, 0.000, 0.000, 0.000, 09:22:38.173, 5
143, 11.14, 0.00, 0.00, 13.20, 0.000, 0.000, 0.000, 09:22:38.173, 5
144, 15.90, 0.00, 0.00, 20.31, 0.000, 0.000, 0.000, 09:22:38.174, 5
145, 19.31, 0.00, 0.00, 18.63, 0.000, 0.000, 0.000, 09:22:38.193, 5
146, 9.47, 0.00, 0.00, 11.02, 0.000, 0.000, 0.000, 09:22:38.193, 5
147, 16.30, 0.00, 0.00, 15.51, 0.000, 0.000, 0.000, 09:22:38.202, 5
148, 18.54, 0.00, 0.00, 16.43, 0.000, 0.000, 0.000, 09:22:38.203, 5
149, 12.30, 0.00, 0.00, 19.04, 0.000, 0.000, 0.000, 09:22:38.207, 5
150, 15.38, 0.00, 0.00, 15.47, 0.000, 0.000, 0.000, 09:22:38.209, 5
151, 12.86, 0.00, 0.00, 16.68, 0.000, 0.000, 0.000, 09:22:38.217, 5
152, 17.85, 0.00, 0.00, 19.09, 0.000, 0.000, 0.000, 09:22:38.217, 5
153, 20.96, 0.00, 0.00, 21.21, 0.000, 0.000, 0.000, 09:22:38.232, 5
154, 12.13, 0.00, 0.00, 14.21, 0.000, 0.000, 0.000, 09:22:38.232, 5
155, 13.02, 0.00, 0.00, 13.07, 0.000, 0.000, 0.000, 09:22:38.232, 5
156, 17.17, 0.00, 0.00, 20.40, 0.000, 0.000, 0.000, 09:22:38.233, 5
157, 15.95, 0.00, 0.00, 18.41, 0.000, 0.000, 0.000, 09:22:38.254, 5
158, 11.81, 0.00, 0.00, 11.18, 0.000, 0.000, 0.000, 09:22:38.256, 5
159, 14.13, 0.00, 0.00, 18.95, 0.000, 0.000, 0.000, 09:22:38.261, 5
160, 17.04, 0.00, 0.00, 19.76, 0.000, 0.000, 0.000, 09:22:38.261, 5
161, 17.39, 0.00, 0.00, 15.50, 0.000, 0.000, 0.000, 09:22:38.263, 5
162, 14.33, 0.00, 0.00, 17.70, 0.000, 0.000, 0.000, 09:22:38.263, 5
163, 15.68, 0.00, 0.00, 17.77, 0.000, 0.000, 0.000, 09:22:38.277, 5
164, 17.50, 0.00, 0.00, 14.46, 0.000, 0.000, 0.000, 09:22:38.277, 5
165, 17.44, 0.00, 0.00, 22.22, 0.000, 0.000, 0.000, 09:22:38.308, 5
166, 10.36, 0.00, 0.00, 12.03, 0.000, 0.000, 0.000, 09:22:38.309, 5
167, 11.32, 0.00, 0.00, 11.74, 0.000, 0.000, 0.000, 09:22:38.309, 5
168, 18.27, 0.00, 0.00, 18.49, 0.000, 0.000, 0.000, 09:22:38.309, 5
169, 20.47, 0.00, 0.00, 20.94, 0.000, 0.000, 0.000, 09:22:38.309, 5
170, 13.97, 0.00, 0.00, 10.51, 0.000, 0.000, 0.000, 09:22:38.309, 5
171, 12.67, 0.00, 0.00, 17.61, 0.000, 0.000, 0.000, 09:22:38.309, 5
172, 17.38, 0.00, 0.00, 22.11, 0.000, 0.000, 0.000, 09:22:38.309, 5
173, 13.48, 0.00, 0.00, 16.65, 0.000, 0.000, 0.000, 09:22:38.338, 5
174, 13.16, 0.00, 0.00, 15.07, 0.000, 0.000, 0.000, 09:22:38.338, 5
175, 13.83, 0.00, 0.00, 14.39, 0.000, 0.000, 0.000, 09:22:38.338, 5
176, 16.42, 0.00, 0.00, 16.23, 0.000, 0.000, 0.000, 09:22:38.339, 5
177, 18.81, 0.00, 0.00, 22.20, 0.000, 0.000, 0.000, 09:22:38.352, 5
178, 10.44, 0.00, 0.00, 12.02, 0.000, 0.000, 0.000, 09:22:38.352, 5
179, 13.46, 0.00, 0.00, 9.05, 0.000, 0.000, 0.000, 09:22:38.355, 5
180, 18.44, 0.00, 0.00, 18.36, 0.000, 0.000, 0.000, 09:22:38.355, 5
181, 18.19, 0.00, 0.00, 22.93, 0.000, 0.000, 0.000, 09:22:38.367, 5
182, 11.02, 0.00, 0.00, 10.50, 0.000, 0.000, 0.000, 09:22:38.367, 5
183, 14.61, 0.00, 0.00, 14.39, 0.000, 0.000, 0.000, 09:22:38.383, 5
184, 13.77, 0.00, 0.00, 19.40, 0.000, 0.000, 0.000, 09:22:38.383, 5
185, 16.35, 0.00, 0.00, 20.26, 0.000, 0.000, 0.000, 09:22:38.383, 5
186, 13.47, 0.00, 0.00, 18.37, 0.000, 0.000, 0.000, 09:22:38.383, 5
187, 14.75, 0.00, 0.00, 16.25, 0.000, 0.000, 0.000, 09:22:38.398, 5
188, 19.08, 0.00, 0.00, 18.55, 0.000, 0.000, 0.000, 09:22:38.398, 5
189, 19.19, 0.00, 0.00, 19.95, 0.000, 0.000, 0.000, 09:22:38.412, 5
190, 13.43, 0.00, 0.00, 12.87, 0.000, 0.000, 0.000, 09:22:38.412, 5
191, 12.53, 0.00, 0.00, 8.85, 0.000, 0.000, 0.000, 09:22:38.412, 5
192, 16.36, 0.00, 0.00, 23.38, 0.000, 0.000, 0.000, 09:22:38.412, 5
193, 16.72, 0.00, 0.00, 18.19, 0.000, 0.000, 0.000, 09:22:38.441, 5
194, 12.33, 0.00, 0.00, 9.50, 0.000, 0.000, 0.000, 09:22:38.442, 5
195, 11.50, 0.00, 0.00, 14.19, 0.000, 0.000, 0.000, 09:22:38.442, 5
196, 17.67, 0.00, 0.00, 16.59, 0.000, 0.000, 0.000, 09:22:38.442, 5
197, 17.16, 0.00, 0.00, 16.77, 0.000, 0.000, 0.000, 09:22:38.443, 5
198, 13.98, 0.00, 0.00, 14.89, 0.000, 0.000, 0.000, 09:22:38.443, 5
199, 17.84, 0.00, 0.00, 17.27, 0.000, 0.000, 0.000, 09:22:38.458, 5
200, 17.27, 0.00, 0.00, 16.19, 0.000, 0.000, 0.000, 09:22:38.459, 5
0, 17.20, 0.00, 0.00, 24.03, 0.000, 0.000, 0.000, 09:22:38.459, 5
1, 14.95, 0.00, 0.00, 14.21, 0.000, 0.000, 0.000, 09:22:38.476, 5
2, 13.06, 0.00, 0.00, 11.75, 0.000, 0.000, 0.000, 09:22:38.476, 5
3, 18.36, 0.00, 0.00, 21.56, 0.000, 0.000, 0.000, 09:22:38.489, 5
4, 17.97, 0.00, 0.00, 21.55, 0.000, 0.000, 0.000, 09:22:38.489, 5
5, 11.16, 0.00, 0.00, 8.80, 0.000, 0.000, 0.000, 09:22:38.490, 5
6, 11.60, 0.00, 0.00, 15.62, 0.000, 0.000, 0.000, 09:22:38.492, 5
7, 19.26, 0.00, 0.00, 26.15, 0.000, 0.000, 0.000, 09:22:38.517, 5
8, 14.81, 0.00, 0.00, 15.83, 0.000, 0.000, 0.000, 09:22:38.517, 5
9, 14.05, 0.00, 0.00, 17.71, 0.000, 0.000, 0.000, 09:22:38.517, 5
10, 14.16, 0.00, 0.00, 16.37, 0.000, 0.000, 0.000, 09:22:38.518, 5
11, 14.84, 0.00, 0.00, 18.87, 0.000, 0.000, 0.000, 09:22:38.519, 5
12, 19.11, 0.00, 0.00, 21.15, 0.000, 0.000, 0.000, 09:22:38.519, 5
13, 14.87, 0.00, 0.00, 14.21, 0.000, 0.000, 0.000, 09:22:38.532, 5
14, 10.17, 0.00, 0.00, 8.63, 0.000, 0.000, 0.000, 09:22:38.532, 5
15, 21.04, 0.00, 0.00, 20.75, 0.000, 0.000, 0.000, 09:22:38.546, 5
16, 20.23, 0.00, 0.00, 20.91, 0.000, 0.000, 0.000, 09:22:38.546, 5
17, 11.93, 0.00, 0.00, 14.65, 0.000, 0.000, 0.000, 09:22:38.547, 5
18, 16.99, 0.00, 0.00, 18.72, 0.000, 0.000, 0.000, 09:22:38.547, 5
19, 20.43, 0.00, 0.00, 19.70, 0.000, 0.000, 0.000, 09:22:38.561, 5
20, 11.73, 0.00, 0.00, 13.48, 0.000, 0.000, 0.000, 09:22:38.561, 5
21, 9.04, 0.00, 0.00, 13.20, 0.000, 0.000, 0.000, 09:22:38.576, 5
22, 14.70, 0.00, 0.00, 12.78, 0.000, 0.000, 0.000, 09:22:38.576, 5
23, 16.42, 0.00, 0.00, 18.95, 0.000, 0.000, 0.000, 09:22:38.577, 5
24, 17.93, 0.00, 0.00, 21.73, 0.000, 0.000, 0.000, 09:22:38.577, 5
25, 11.67, 0.00, 0.00, 15.69, 0.000, 0.000, 0.000, 09:22:38.591, 5
26, 14.02, 0.00, 0.00, 10.24, 0.000, 0.000, 0.000, 09:22:38.591, 5
27, 21.29, 0.00, 0.00, 21.93, 0.000, 0.000, 0.000, 09:22:38.622, 5
28, 18.20, 0.00, 0.00, 17.33, 0.000, 0.000, 0.000, 09:22:38.622, 5
29, 11.16, 0.00, 0.00, 10.20, 0.000, 0.000, 0.000, 09:22:38.622, 5
30, 14.29, 0.00, 0.00, 11.77, 0.000, 0.000, 0.000, 09:22:38.623, 5
31, 15.04, 0.00, 0.00, 19.42, 0.000, 0.000, 0.000, 09:22:38.624, 5
32, 16.56, 0.00, 0.00, 14.25, 0.000, 0.000, 0.000, 09:22:38.625, 5
33, 14.35, 0.00, 0.00, 15.81, 0.000, 0.000, 0.000, 09:22:38.625, 5
34, 14.47, 0.00, 0.00, 14.76, 0.000, 0.000, 0.000, 09:22:38.626, 5
35, 18.46, 0.00, 0.00, 19.80, 0.000, 0.000, 0.000, 09:22:38.638, 5
36, 16.02, 0.00, 0.00, 19.63, 0.000, 0.000, 0.000, 09:22:38.639, 5
37, 14.44, 0.00, 0.00, 10.79, 0.000, 0.000, 0.000, 09:22:38.652, 5
38, 13.21, 0.00, 0.00, 15.34, 0.000, 0.000, 0.000, 09:22:38.653, 5
39, 19.72, 0.00, 0.00, 19.57, 0.000, 0.000, 0.000, 09:22:38.668, 5
40, 16.89, 0.00, 0.00, 20.30, 0.000, 0.000, 0.000, 09:22:38.668, 5
41, 13.62, 0.00, 0.00, 12.96, 0.000, 0.000, 0.000, 09:22:38.669, 5
42, 14.85, 0.00, 0.00, 14.85, 0.000, 0.000, 0.000, 09:22:38.670, 5
43, 14.18, 0.00, 0.00, 19.40, 0.000, 0.000, 0.000, 09:22:38.682, 5
44, 19.99, 0.00, 0.00, 20.44, 0.000, 0.000, 0.000, 09:22:38.683, 5
45, 15.15, 0.00, 0.00, 15.46, 0.000, 0.000, 0.000, 09:22:38.697, 5
46, 14.69, 0.00, 0.00, 17.28, 0.000, 0.000, 0.000, 09:22:38.697, 5
47, 16.93, 0.00, 0.00, 16.51, 0.000, 0.000, 0.000, 09:22:38.697, 5
48, 15.89, 0.00, 0.00, 17.99, 0.000, 0.000, 0.000, 09:22:38.698, 5
49, 9.48, 0.00, 0.00, 14.53, 0.000, 0.000, 0.000, 09:22:38.712, 5
50, 10.62, 0.00, 0.00, 9.87, 0.000, 0.000, 0.000, 09:22:38.712, 5
51, 20.50, 0.00, 0.00, 21.34, 0.000, 0.000, 0.000, 09:22:38.727, 5
52, 15.34, 0.00, 0.00, 17.15, 0.000, 0.000, 0.000, 09:22:38.727, 5
53, 11.05, 0.00, 0.00, 11.67, 0.000, 0.000, 0.000, 09:22:38.727, 5
54, 14.11, 0.00, 0.00, 15.86, 0.000, 0.000, 0.000, 09:22:38.727, 5
55, 17.84, 0.00, 0.00, 21.24, 0.000, 0.000, 0.000, 09:22:38.742, 5
56, 16.48, 0.00, 0.00, 15.46, 0.000, 0.000, 0.000, 09:22:38.742, 5
57, 11.28, 0.00, 0.00, 11.58, 0.000, 0.000, 0.000, 09:22:38.758, 5
58, 14.40, 0.00, 0.00, 17.81, 0.000, 0.000, 0.000, 09:22:38.758, 5
59, 18.21, 0.00, 0.00, 18.11, 0.000, 0.000, 0.000, 09:22:38.758, 5
60, 16.53, 0.00, 0.00, 19.14, 0.000, 0.000, 0.000, 09:22:38.758, 5
61, 13.28, 0.00, 0.00, 11.42, 0.000, 0.000, 0.000, 09:22:38.772, 5
62, 11.34, 0.00, 0.00, 8.51, 0.000, 0.000, 0.000, 09:22:38.772, 5
63, 20.47, 0.00, 0.00, 21.45, 0.000, 0.000, 0.000, 09:22:38.788, 5
64, 13.92, 0.00, 0.00, 16.58, 0.000, 0.000, 0.000, 09:22:38.788, 5
65, 10.13, 0.00, 0.00, 12.88, 0.000, 0.000, 0.000, 09:22:38.788, 5
66, 13.08, 0.00, 0.00, 17.05, 0.000, 0.000, 0.000, 09:22:38.789, 5
67, 17.20, 0.00, 0.00, 22.13, 0.000, 0.000, 0.000, 09:22:38.802, 5
68, 10.49, 0.00, 0.00, 13.93, 0.000, 0.000, 0.000, 09:22:38.802, 5
69, 15.03, 0.00, 0.00, 14.04, 0.000, 0.000, 0.000, 09:22:38.816, 5
70, 13.19, 0.00, 0.00, 12.94, 0.000, 0.000, 0.000, 09:22:38.817, 5
71, 15.29, 0.00, 0.00, 20.34, 0.000, 0.000, 0.000, 09:22:38.817, 5
72, 15.39, 0.00, 0.00, 17.02, 0.000, 0.000, 0.000, 09:22:38.818, 5
73, 16.44, 0.00, 0.00, 15.92, 0.000, 0.000, 0.000, 09:22:38.840, 5
74, 13.34, 0.00, 0.00, 15.25, 0.000, 0.000, 0.000, 09:22:38.841, 5
75, 19.96, 0.00, 0.00, 20.88, 0.000, 0.000, 0.000, 09:22:38.847, 5
76, 17.07, 0.00, 0.00, 17.74, 0.000, 0.000, 0.000, 09:22:38.847, 5
77, 12.26, 0.00, 0.00, 13.60, 0.000, 0.000, 0.000, 09:22:38.861, 5
78, 10.42, 0.00, 0.00, 11.83, 0.000, 0.000, 0.000, 09:22:38.862, 5
79, 17.00, 0.00, 0.00, 22.49, 0.000, 0.000, 0.000, 09:22:38.865, 5
80, 14.76, 0.00, 0.00, 18.74, 0.000, 0.000, 0.000, 09:22:38.865, 5
81, 14.06, 0.00, 0.00, 19.59, 0.000, 0.000, 0.000, 09:22:38.876, 5
82, 13.14, 0.00, 0.00, 20.75, 0.000, 0.000, 0.000, 09:22:38.877, 5
83, 18.43, 0.00, 0.00, 18.00, 0.000, 0.000, 0.000, 09:22:38.879, 5
84, 18.09, 0.00, 0.00, 18.13, 0.000, 0.000, 0.000, 09:22:38.879, 5
85, 14.54, 0.00, 0.00, 15.39, 0.000, 0.000, 0.000, 09:22:38.891, 5
86, 10.89, 0.00, 0.00, 10.40, 0.000, 0.000, 0.000, 09:22:38.891, 5
87, 17.96, 0.00, 0.00, 22.53, 0.000, 0.000, 0.000, 09:22:38.908, 5
88, 14.27, 0.00, 0.00, 14.94, 0.000, 0.000, 0.000, 09:22:38.908, 5
89, 14.54, 0.00, 0.00, 14.70, 0.000, 0.000, 0.000, 09:22:38.908, 5
90, 10.40, 0.00, 0.00, 14.20, 0.000, 0.000, 0.000, 09:22:38.908, 5
91, 23.11, 0.00, 0.00, 24.65, 0.000, 0.000, 0.000, 09:22:38.922, 5
92, 21.28, 0.00, 0.00, 16.74, 0.000, 0.000, 0.000, 09:22:38.922, 5
93, 15.72, 0.00, 0.00, 14.91, 0.000, 0.000, 0.000, 09:22:38.937, 5
94, 13.45, 0.00, 0.00, 15.71, 0.000, 0.000, 0.000, 09:22:38.938, 5
95, 17.14, 0.00, 0.00, 15.07, 0.000, 0.000, 0.000, 09:22:38.938, 5
96, 18.03, 0.00, 0.00, 17.63, 0.000, 0.000, 0.000, 09:22:38.939, 5
97, 16.64, 0.00, 0.00, 13.81, 0.000, 0.000, 0.000, 09:22:38.951, 5
98, 15.16, 0.00, 0.00, 11.22, 0.000, 0.000, 0.000, 09:22:38.952, 5
99, 19.07, 0.00, 0.00, 23.93, 0.000, 0.000, 0.000, 09:22:38.966, 5
100, 15.72, 0.00, 0.00, 19.09, 0.000, 0.000, 0.000, 09:22:38.966, 5
101, 12.41, 0.00, 0.00, 12.42, 0.000, 0.000, 0.000, 09:22:38.967, 5
102, 15.77, 0.00, 0.00, 13.76, 0.000, 0.000, 0.000, 09:22:38.967, 5
103, 15.97, 0.00, 0.00, 18.83, 0.000, 0.000, 0.000, 09:22:38.981, 5
104, 17.67, 0.00, 0.00, 15.18, 0.000, 0.000, 0.000, 09:22:38.981, 5
105, 13.16, 0.00, 0.00, 13.70, 0.000, 0.000, 0.000, 09:22:38.996, 5
106, 16.30, 0.00, 0.00, 18.59, 0.000, 0.000, 0.000, 09:22:38.996, 5
107, 13.62, 0.00, 0.00, 15.22, 0.000, 0.000, 0.000, 09:22:38.996, 5
108, 18.30, 0.00, 0.00, 17.97, 0.000, 0.000, 0.000, 09:22:38.997, 5
109, 12.48, 0.00, 0.00, 12.85, 0.000, 0.000, 0.000, 09:22:39.011, 5
110, 15.73, 0.00, 0.00, 12.91, 0.000, 0.000, 0.000, 09:22:39.011, 5
111, 15.05, 0.00, 0.00, 21.08, 0.000, 0.000, 0.000, 09:22:39.027, 5
112, 16.24, 0.00, 0.00, 20.65, 0.000, 0.000, 0.000, 09:22:39.027, 5
113, 14.48, 0.00, 0.00, 9.60, 0.000, 0.000, 0.000, 09:22:39.027, 5
114, 12.34, 0.00, 0.00, 18.95, 0.000, 0.000, 0.000, 09:22:39.027, 5
115, 18.43, 0.00, 0.00, 25.33, 0.000, 0.000, 0.000, 09:22:39.042, 5
116, 11.42, 0.00, 0.00, 13.79, 0.000, 0.000, 0.000, 09:22:39.042, 5
117, 17.61, 0.00, 0.00, 13.81, 0.000, 0.000, 0.000, 09:22:39.074, 5
118, 12.25, 0.00, 0.00, 17.32, 0.000, 0.000, 0.000, 09:22:39.074, 5
119, 20.16, 0.00, 0.00, 20.65, 0.000, 0.000, 0.000, 09:22:39.074, 5
120, 14.13, 0.00, 0.00, 18.40, 0.000, 0.000, 0.000, 09:22:39.074, 5
121, 11.38, 0.00, 0.00, 14.50, 0.000, 0.000, 0.000, 09:22:39.076, 5
122, 14.18, 0.00, 0.00, 12.56, 0.000, 0.000, 0.000, 09:22:39.076, 5
123, 18.33, 0.00, 0.00, 21.01, 0.000, 0.000, 0.000, 09:22:39.076, 5
124, 16.53, 0.00, 0.00, 16.96, 0.000, 0.000, 0.000, 09:22:39.076, 5
125, 12.79, 0.00, 0.00, 11.82, 0.000, 0.000, 0.000, 09:22:39.088, 5
126, 18.41, 0.00, 0.00, 19.43, 0.000, 0.000, 0.000, 09:22:39.088, 5
127, 21.00, 0.00, 0.00, 22.88, 0.000, 0.000, 0.000, 09:22:39.102, 5
128, 11.46, 0.00, 0.00, 13.74, 0.000, 0.000, 0.000, 09:22:39.102, 5
129, 10.90, 0.00, 0.00, 12.90, 0.000, 0.000, 0.000, 09:22:39.117, 5
130, 16.48, 0.00, 0.00, 18.91, 0.000, 0.000, 0.000, 09:22:39.117, 5
131, 15.67, 0.00, 0.00, 18.46, 0.000, 0.000, 0.000, 09:22:39.132, 5
132, 19.69, 0.00, 0.00, 18.05, 0.000, 0.000, 0.000, 09:22:39.132, 5
133, 13.53, 0.00, 0.00, 14.80, 0.000, 0.000, 0.000, 09:22:39.133, 5
134, 12.73, 0.00, 0.00, 11.53, 0.000, 0.000, 0.000, 09:22:39.133, 5
135, 20.13, 0.00, 0.00, 24.84, 0.000, 0.000, 0.000, 09:22:39.147, 5
136, 15.00, 0.00, 0.00, 20.10, 0.000, 0.000, 0.000, 09:22:39.147, 5
137, 7.02, 0.00, 0.00, 6.69, 0.000, 0.000, 0.000, 09:22:39.147, 5
138, 18.01, 0.00, 0.00, 17.55, 0.000, 0.000, 0.000, 09:22:39.147, 5
139, 19.27, 0.00, 0.00, 20.36, 0.000, 0.000, 0.000, 09:22:39.162, 5
140, 11.63, 0.00, 0.00, 13.70, 0.000, 0.000, 0.000, 09:22:39.162, 5
141, 11.65, 0.00, 0.00, 13.60, 0.000, 0.000, 0.000, 09:22:39.178, 5
142, 13.17, 0.00, 0.00, 18.19, 0.000, 0.000, 0.000, 09:22:39.178, 5
143, 16.52, 0.00, 0.00, 16.96, 0.000, 0.000, 0.000, 09:22:39.178, 5
144, 16.29, 0.00, 0.00, 20.45, 0.000, 0.000, 0.000, 09:22:39.179, 5
145, 13.95, 0.00, 0.00, 15.54, 0.000, 0.000, 0.000, 09:22:39.200, 5
146, 14.51, 0.00, 0.00, 15.08, 0.000, 0.000, 0.000, 09:22:39.200, 5
147, 20.82, 0.00, 0.00, 23.44, 0.000, 0.000, 0.000, 09:22:39.207, 5
148, 18.17, 0.00, 0.00, 21.52, 0.000, 0.000, 0.000, 09:22:39.208, 5
149, 9.11, 0.00, 0.00, 11.66, 0.000, 0.000, 0.000, 09:22:39.208, 5
150, 13.12, 0.00, 0.00, 16.42, 0.000, 0.000, 0.000, 09:22:39.213, 5
151, 22.49, 0.00, 0.00, 21.92, 0.000, 0.000, 0.000, 09:22:39.239, 5
152, 16.57, 0.00, 0.00, 16.25, 0.000, 0.000, 0.000, 09:22:39.239, 5
153, 13.28, 0.00, 0.00, 16.46, 0.000, 0.000, 0.000, 09:22:39.241, 5
154, 12.94, 0.00, 0.00, 20.27, 0.000, 0.000, 0.000, 09:22:39.241, 5
155, 14.93, 0.00, 0.00, 15.60, 0.000, 0.000, 0.000, 09:22:39.241, 5
156, 16.83, 0.00, 0.00, 15.42, 0.000, 0.000, 0.000, 09:22:39.242, 5
157, 15.72, 0.00, 0.00, 13.69, 0.000, 0.000, 0.000, 09:22:39.252, 5
158, 15.50, 0.00, 0.00, 8.46, 0.000, 0.000, 0.000, 09:22:39.252, 5
159, 19.57, 0.00, 0.00, 22.37, 0.000, 0.000, 0.000, 09:22:39.267, 5
160, 16.43, 0.00, 0.00, 20.90, 0.000, 0.000, 0.000, 09:22:39.267, 5
161, 12.24, 0.00, 0.00, 13.23, 0.000, 0.000, 0.000, 09:22:39.268, 5
162, 16.00, 0.00, 0.00, 15.91, 0.000, 0.000, 0.000, 09:22:39.268, 5
163, 19.48, 0.00, 0.00, 16.84, 0.000, 0.000, 0.000, 09:22:39.282, 5
164, 13.58, 0.00, 0.00, 13.21, 0.000, 0.000, 0.000, 09:22:39.282, 5
165, 13.06, 0.00, 0.00, 16.20, 0.000, 0.000, 0.000, 09:22:39.297, 5
166, 14.12, 0.00, 0.00, 17.72, 0.000, 0.000, 0.000, 09:22:39.297, 5
167, 17.08, 0.00, 0.00, 20.23, 0.000, 0.000, 0.000, 09:22:39.298, 5
168, 12.49, 0.00, 0.00, 18.92, 0.000, 0.000, 0.000, 09:22:39.298, 5
169, 10.44, 0.00, 0.00, 12.14, 0.000, 0.000, 0.000, 09:22:39.312, 5
170, 13.49, 0.00, 0.00, 13.06, 0.000, 0.000, 0.000, 09:22:39.312, 5
171, 14.75, 0.00, 0.00, 19.13, 0.000, 0.000, 0.000, 09:22:39.345, 5
172, 16.53, 0.00, 0.00, 21.79, 0.000, 0.000, 0.000, 09:22:39.346, 5
173, 11.19, 0.00, 0.00, 12.43, 0.000, 0.000, 0.000, 09:22:39.346, 5
174, 14.55, 0.00, 0.00, 16.98, 0.000, 0.000, 0.000, 09:22:39.347, 5
175, 14.80, 0.00, 0.00, 19.14, 0.000, 0.000, 0.000, 09:22:39.348, 5
176, 12.73, 0.00, 0.00, 15.71, 0.000, 0.000, 0.000, 09:22:39.349, 5
177, 12.33, 0.00, 0.00, 13.12, 0.000, 0.000, 0.000, 09:22:39.349, 5
178, 12.21, 0.00, 0.00, 15.09, 0.000, 0.000, 0.000, 09:22:39.350, 5
179, 16.28, 0.00, 0.00, 19.35, 0.000, 0.000, 0.000, 09:22:39.356, 5
180, 19.96, 0.00, 0.00, 16.70, 0.000, 0.000, 0.000, 09:22:39.357, 5
181, 17.79, 0.00, 0.00, 10.59, 0.000, 0.000, 0.000, 09:22:39.371, 5
182, 12.39, 0.00, 0.00, 16.28, 0.000, 0.000, 0.000, 09:22:39.371, 5
183, 17.64, 0.00, 0.00, 21.39, 0.000, 0.000, 0.000, 09:22:39.390, 5
184, 16.67, 0.00, 0.00, 17.28, 0.000, 0.000, 0.000, 09:22:39.390, 5
185, 11.82, 0.00, 0.00, 17.32, 0.000, 0.000, 0.000, 09:22:39.391, 5
186, 15.69, 0.00, 0.00, 20.35, 0.000, 0.000, 0.000, 09:22:39.392, 5
187, 17.61, 0.00, 0.00, 23.06, 0.000, 0.000, 0.000, 09:22:39.403, 5
188, 16.27, 0.00, 0.00, 14.23, 0.000, 0.000, 0.000, 09:22:39.404, 5
189, 15.96, 0.00, 0.00, 13.03, 0.000, 0.000, 0.000, 09:22:39.421, 5
190, 18.10, 0.00, 0.00, 13.76, 0.000, 0.000, 0.000, 09:22:39.424, 5
191, 19.41, 0.00, 0.00, 15.85, 0.000, 0.000, 0.000, 09:22:39.425, 5
192, 15.32, 0.00, 0.00, 16.46, 0.000, 0.000, 0.000, 09:22:39.426, 5
193, 13.14, 0.00, 0.00, 12.09, 0.000, 0.000, 0.000, 09:22:39.433, 5
194, 15.32, 0.00, 0.00, 10.29, 0.000, 0.000, 0.000, 09:22:39.434, 5
195, 18.65, 0.00, 0.00, 22.22, 0.000, 0.000, 0.000, 09:22:39.447, 5
196, 16.78, 0.00, 0.00, 14.27, 0.000, 0.000, 0.000, 09:22:39.447, 5
197, 11.98, 0.00, 0.00, 6.47, 0.000, 0.000, 0.000, 09:22:39.448, 5
198, 14.43, 0.00, 0.00, 19.35, 0.000, 0.000, 0.000, 09:22:39.448, 5
199, 18.28, 0.00, 0.00, 21.86, 0.000, 0.000, 0.000, 09:22:39.462, 5
200, 12.91, 0.00, 0.00, 15.27, 0.000, 0.000, 0.000, 09:22:39.462, 5
0, 13.01, 0.00, 0.00, 17.12, 0.000, 0.000, 0.000, 09:22:39.463, 5
1, 13.68, 0.00, 0.00, 19.47, 0.000, 0.000, 0.000, 09:22:39.492, 5
2, 19.65, 0.00, 0.00, 18.33, 0.000, 0.000, 0.000, 09:22:39.492, 5
3, 15.86, 0.00, 0.00, 18.26, 0.000, 0.000, 0.000, 09:22:39.493, 5
4, 15.41, 0.00, 0.00, 14.69, 0.000, 0.000, 0.000, 09:22:39.493, 5
5, 13.78, 0.00, 0.00, 19.59, 0.000, 0.000, 0.000, 09:22:39.493, 5
6, 17.31, 0.00, 0.00, 18.45, 0.000, 0.000, 0.000, 09:22:39.493, 5
7, 15.35, 0.00, 0.00, 17.48, 0.000, 0.000, 0.000, 09:22:39.522, 5
8, 12.94, 0.00, 0.00, 8.98, 0.000, 0.000, 0.000, 09:22:39.523, 5
9, 13.13, 0.00, 0.00, 20.06, 0.000, 0.000, 0.000, 09:22:39.525, 5
10, 14.33, 0.00, 0.00, 19.20, 0.000, 0.000, 0.000, 09:22:39.525, 5
11, 16.79, 0.00, 0.00, 15.53, 0.000, 0.000, 0.000, 09:22:39.525, 5
12, 12.61, 0.00, 0.00, 14.68, 0.000, 0.000, 0.000, 09:22:39.526, 5
13, 9.45, 0.00, 0.00, 18.68, 0.000, 0.000, 0.000, 09:22:39.537, 5
14, 20.06, 0.00, 0.00, 17.12, 0.000, 0.000, 0.000, 09:22:39.537, 5
15, 16.29, 0.00, 0.00, 20.38, 0.000, 0.000, 0.000, 09:22:39.552, 5
16, 9.23, 0.00, 0.00, 13.47, 0.000, 0.000, 0.000, 09:22:39.552, 5
17, 12.03, 0.00, 0.00, 13.69, 0.000, 0.000, 0.000, 09:22:39.553, 5
18, 19.63, 0.00, 0.00, 21.71, 0.000, 0.000, 0.000, 09:22:39.553, 5
19, 17.53, 0.00, 0.00, 19.30, 0.000, 0.000, 0.000, 09:22:39.567, 5
20, 14.38, 0.00, 0.00, 8.59, 0.000, 0.000, 0.000, 09:22:39.567, 5
21, 19.48, 0.00, 0.00, 16.81, 0.000, 0.000, 0.000, 09:22:39.582, 5
22, 15.24, 0.00, 0.00, 19.59, 0.000, 0.000, 0.000, 09:22:39.582, 5
23, 12.31, 0.00, 0.00, 11.37, 0.000, 0.000, 0.000, 09:22:39.582, 5
24, 14.12, 0.00, 0.00, 16.79, 0.000, 0.000, 0.000, 09:22:39.583, 5
25, 13.68, 0.00, 0.00, 15.72, 0.000, 0.000, 0.000, 09:22:39.598, 5
26, 17.48, 0.00, 0.00, 19.44, 0.000, 0.000, 0.000, 09:22:39.598, 5
27, 16.84, 0.00, 0.00, 13.20, 0.000, 0.000, 0.000, 09:22:39.628, 5
28, 15.39, 0.00, 0.00, 11.57, 0.000, 0.000, 0.000, 09:22:39.630, 5
29, 14.90, 0.00, 0.00, 10.14, 0.000, 0.000, 0.000, 09:22:39.630, 5
30, 16.90, 0.00, 0.00, 23.10, 0.000, 0.000, 0.000, 09:22:39.631, 5
31, 13.25, 0.00, 0.00, 16.79, 0.000, 0.000, 0.000, 09:22:39.632, 5
32, 8.77, 0.00, 0.00, 12.85, 0.000, 0.000, 0.000, 09:22:39.633, 5
33, 16.32, 0.00, 0.00, 20.06, 0.000, 0.000, 0.000, 09:22:39.636, 5
34, 17.95, 0.00, 0.00, 18.53, 0.000, 0.000, 0.000, 09:22:39.636, 5
35, 16.70, 0.00, 0.00, 14.70, 0.000, 0.000, 0.000, 09:22:39.657, 5
36, 12.16, 0.00, 0.00, 14.55, 0.000, 0.000, 0.000, 09:22:39.658, 5
37, 20.03, 0.00, 0.00, 20.01, 0.000, 0.000, 0.000, 09:22:39.659, 5
38, 17.25, 0.00, 0.00, 20.79, 0.000, 0.000, 0.000, 09:22:39.659, 5
39, 19.29, 0.00, 0.00, 22.25, 0.000, 0.000, 0.000, 09:22:39.671, 5
40, 12.42, 0.00, 0.00, 15.90, 0.000, 0.000, 0.000, 09:22:39.672, 5
41, 12.24, 0.00, 0.00, 15.95, 0.000, 0.000, 0.000, 09:22:39.675, 5
42, 20.65, 0.00, 0.00, 23.81, 0.000, 0.000, 0.000, 09:22:39.675, 5
43, 18.17, 0.00, 0.00, 14.70, 0.000, 0.000, 0.000, 09:22:39.688, 5
44, 12.96, 0.00, 0.00, 8.70, 0.000, 0.000, 0.000, 09:22:39.689, 5
45, 17.27, 0.00, 0.00, 17.11, 0.000, 0.000, 0.000, 09:22:39.702, 5
46, 19.85, 0.00, 0.00, 17.10, 0.000, 0.000, 0.000, 09:22:39.702, 5
47, 18.77, 0.00, 0.00, 12.18, 0.000, 0.000, 0.000, 09:22:39.702, 5
48, 11.76, 0.00, 0.00, 13.66, 0.000, 0.000, 0.000, 09:22:39.703, 5
49, 15.43, 0.00, 0.00, 13.76, 0.000, 0.000, 0.000, 09:22:39.731, 5
50, 14.10, 0.00, 0.00, 17.18, 0.000, 0.000, 0.000, 09:22:39.732, 5
51, 17.22, 0.00, 0.00, 17.86, 0.000, 0.000, 0.000, 09:22:39.732, 5
52, 12.23, 0.00, 0.00, 15.28, 0.000, 0.000, 0.000, 09:22:39.732, 5
53, 12.71, 0.00, 0.00, 14.12, 0.000, 0.000, 0.000, 09:22:39.732, 5
54, 19.77, 0.00, 0.00, 22.76, 0.000, 0.000, 0.000, 09:22:39.733, 5
55, 14.75, 0.00, 0.00, 14.97, 0.000, 0.000, 0.000, 09:22:39.747, 5
56, 7.73, 0.00, 0.00, 7.67, 0.000, 0.000, 0.000, 09:22:39.747, 5
57, 16.36, 0.00, 0.00, 18.62, 0.000, 0.000, 0.000, 09:22:39.761, 5
58, 16.10, 0.00, 0.00, 18.84, 0.000, 0.000, 0.000, 09:22:39.761, 5
59, 17.06, 0.00, 0.00, 13.45, 0.000, 0.000, 0.000, 09:22:39.762, 5
60, 9.00, 0.00, 0.00, 12.99, 0.000, 0.000, 0.000, 09:22:39.762, 5
61, 17.66, 0.00, 0.00, 21.32, 0.000, 0.000, 0.000, 09:22:39.777, 5
62, 16.03, 0.00, 0.00, 19.51, 0.000, 0.000, 0.000, 09:22:39.778, 5
63, 17.56, 0.00, 0.00, 18.65, 0.000, 0.000, 0.000, 09:22:39.793, 5
64, 11.92, 0.00, 0.00, 14.83, 0.000, 0.000, 0.000, 09:22:39.793, 5
65, 15.60, 0.00, 0.00, 17.27, 0.000, 0.000, 0.000, 09:22:39.793, 5
66, 18.60, 0.00, 0.00, 22.07, 0.000, 0.000, 0.000, 09:22:39.793, 5
67, 16.91, 0.00, 0.00, 17.82, 0.000, 0.000, 0.000, 09:22:39.807, 5
68, 14.95, 0.00, 0.00, 16.54, 0.000, 0.000, 0.000, 09:22:39.808, 5
69, 15.60, 0.00, 0.00, 21.42, 0.000, 0.000, 0.000, 09:22:39.823, 5
70, 17.30, 0.00, 0.00, 22.26, 0.000, 0.000, 0.000, 09:22:39.823, 5
71, 15.57, 0.00, 0.00, 12.81, 0.000, 0.000, 0.000, 09:22:39.838, 5
72, 6.88, 0.00, 0.00, 11.15, 0.000, 0.000, 0.000, 09:22:39.838, 5
73, 12.98, 0.00, 0.00, 16.32, 0.000, 0.000, 0.000, 09:22:39.845, 5
74, 15.72, 0.00, 0.00, 16.92, 0.000, 0.000, 0.000, 09:22:39.845, 5
75, 16.56, 0.00, 0.00, 15.35, 0.000, 0.000, 0.000, 09:22:39.852, 5
76, 11.10, 0.00, 0.00, 16.79, 0.000, 0.000, 0.000, 09:22:39.855, 5
77, 13.87, 0.00, 0.00, 11.30, 0.000, 0.000, 0.000, 09:22:39.856, 5
78, 19.57, 0.00, 0.00, 26.66, 0.000, 0.000, 0.000, 09:22:39.856, 5
79, 15.94, 0.00, 0.00, 18.67, 0.000, 0.000, 0.000, 09:22:39.868, 5
80, 11.41, 0.00, 0.00, 9.28, 0.000, 0.000, 0.000, 09:22:39.868, 5
81, 14.06, 0.00, 0.00, 21.84, 0.000, 0.000, 0.000, 09:22:39.882, 5
82, 21.44, 0.00, 0.00, 24.62, 0.000, 0.000, 0.000, 09:22:39.883, 5
83, 14.69, 0.00, 0.00, 10.32, 0.000, 0.000, 0.000, 09:22:39.898, 5
84, 14.86, 0.00, 0.00, 14.34, 0.000, 0.000, 0.000, 09:22:39.898, 5
85, 16.35, 0.00, 0.00, 20.33, 0.000, 0.000, 0.000, 09:22:39.899, 5
86, 19.19, 0.00, 0.00, 18.61, 0.000, 0.000, 0.000, 09:22:39.899, 5
87, 16.38, 0.00, 0.00, 18.16, 0.000, 0.000, 0.000, 09:22:39.914, 5
88, 11.22, 0.00, 0.00, 12.77, 0.000, 0.000, 0.000, 09:22:39.914, 5
89, 13.63, 0.00, 0.00, 13.81, 0.000, 0.000, 0.000, 09:22:39.915, 5
90, 21.04, 0.00, 0.00, 20.41, 0.000, 0.000, 0.000, 09:22:39.915, 5
91, 14.74, 0.00, 0.00, 16.55, 0.000, 0.000, 0.000, 09:22:39.930, 5
92, 8.96, 0.00, 0.00, 9.89, 0.000, 0.000, 0.000, 09:22:39.931, 5
93, 15.11, 0.00, 0.00, 17.28, 0.000, 0.000, 0.000, 09:22:39.942, 5
94, 18.54, 0.00, 0.00, 21.70, 0.000, 0.000, 0.000, 09:22:39.943, 5
95, 16.51, 0.00, 0.00, 15.63, 0.000, 0.000, 0.000, 09:22:39.944, 5
96, 15.51, 0.00, 0.00, 13.67, 0.000, 0.000, 0.000, 09:22:39.945, 5
97, 17.49, 0.00, 0.00, 17.38, 0.000, 0.000, 0.000, 09:22:39.972, 5
98, 17.29, 0.00, 0.00, 19.12, 0.000, 0.000, 0.000, 09:22:39.972, 5
99, 16.78, 0.00, 0.00, 20.50, 0.000, 0.000, 0.000, 09:22:39.973, 5
100, 10.53, 0.00, 0.00, 15.15, 0.000, 0.000, 0.000, 09:22:39.973, 5
101, 14.47, 0.00, 0.00, 12.68, 0.000, 0.000, 0.000, 09:22:39.973, 5
102, 18.80, 0.00, 0.00, 21.76, 0.000, 0.000, 0.000, 09:22:39.973, 5
103, 15.04, 0.00, 0.00, 17.32, 0.000, 0.000, 0.000, 09:22:40.002, 5
104, 14.50, 0.00, 0.00, 6.23, 0.000, 0.000, 0.000, 09:22:40.002, 5
105, 13.41, 0.00, 0.00, 18.61, 0.000, 0.000, 0.000, 09:22:40.003, 5
106, 17.88, 0.00, 0.00, 21.30, 0.000, 0.000, 0.000, 09:22:40.004, 5
107, 13.84, 0.00, 0.00, 13.59, 0.000, 0.000, 0.000, 09:22:40.004, 5
108, 12.26, 0.00, 0.00, 12.41, 0.000, 0.000, 0.000, 09:22:40.005, 5
109, 13.54, 0.00, 0.00, 15.32, 0.000, 0.000, 0.000, 09:22:40.017, 5
110, 17.02, 0.00, 0.00, 15.49, 0.000, 0.000, 0.000, 09:22:40.017, 5
111, 17.85, 0.00, 0.00, 16.25, 0.000, 0.000, 0.000, 09:22:40.031, 5
112, 13.88, 0.00, 0.00, 12.43, 0.000, 0.000, 0.000, 09:22:40.032, 5
113, 14.33, 0.00, 0.00, 14.05, 0.000, 0.000, 0.000, 09:22:40.032, 5
114, 20.35, 0.00, 0.00, 17.71, 0.000, 0.000, 0.000, 09:22:40.032, 5
115, 14.50, 0.00, 0.00, 15.79, 0.000, 0.000, 0.000, 09:22:40.048, 5
116, 12.32, 0.00, 0.00, 10.35, 0.000, 0.000, 0.000, 09:22:40.048, 5
117, 17.53, 0.00, 0.00, 19.64, 0.000, 0.000, 0.000, 09:22:40.077, 5
118, 15.50, 0.00, 0.00, 23.08, 0.000, 0.000, 0.000, 09:22:40.077, 5
119, 12.28, 0.00, 0.00, 15.44, 0.000, 0.000, 0.000, 09:22:40.077, 5
120, 10.65, 0.00, 0.00, 13.45, 0.000, 0.000, 0.000, 09:22:40.078, 5
121, 18.86, 0.00, 0.00, 22.47, 0.000, 0.000, 0.000, 09:22:40.078, 5
122, 17.24, 0.00, 0.00, 17.41, 0.000, 0.000, 0.000, 09:22:40.078, 5
123, 11.65, 0.00, 0.00, 16.08, 0.000, 0.000, 0.000, 09:22:40.079, 5
124, 15.65, 0.00, 0.00, 17.21, 0.000, 0.000, 0.000, 09:22:40.079, 5
125, 13.85, 0.00, 0.00, 14.59, 0.000, 0.000, 0.000, 09:22:40.098, 5
126, 17.12, 0.00, 0.00, 23.30, 0.000, 0.000, 0.000, 09:22:40.099, 5
127, 18.33, 0.00, 0.00, 16.65, 0.000, 0.000, 0.000, 09:22:40.107, 5
128, 13.17, 0.00, 0.00, 8.16, 0.000, 0.000, 0.000, 09:22:40.107, 5
129, 20.14, 0.00, 0.00, 22.61, 0.000, 0.000, 0.000, 09:22:40.122, 5
130, 17.54, 0.00, 0.00, 18.79, 0.000, 0.000, 0.000, 09:22:40.123, 5
131, 13.73, 0.00, 0.00, 11.73, 0.000, 0.000, 0.000, 09:22:40.124, 5
132, 10.40, 0.00, 0.00, 14.84, 0.000, 0.000, 0.000, 09:22:40.125, 5
133, 18.07, 0.00, 0.00, 18.28, 0.000, 0.000, 0.000, 09:22:40.137, 5
134, 17.45, 0.00, 0.00, 17.07, 0.000, 0.000, 0.000, 09:22:40.138, 5
135, 14.59, 0.00, 0.00, 18.51, 0.000, 0.000, 0.000, 09:22:40.152, 5
136, 15.58, 0.00, 0.00, 13.42, 0.000, 0.000, 0.000, 09:22:40.153, 5
137, 14.11, 0.00, 0.00, 13.08, 0.000, 0.000, 0.000, 09:22:40.154, 5
138, 17.21, 0.00, 0.00, 19.73, 0.000, 0.000, 0.000, 09:22:40.154, 5
139, 13.17, 0.00, 0.00, 18.44, 0.000, 0.000, 0.000, 09:22:40.167, 5
140, 14.03, 0.00, 0.00, 9.32, 0.000, 0.000, 0.000, 09:22:40.167, 5
141, 16.09, 0.00, 0.00, 21.16, 0.000, 0.000, 0.000, 09:22:40.183, 5
142, 18.01, 0.00, 0.00, 21.76, 0.000, 0.000, 0.000, 09:22:40.183, 5
143, 14.44, 0.00, 0.00, 14.46, 0.000, 0.000, 0.000, 09:22:40.183, 5
144, 13.62, 0.00, 0.00, 12.72, 0.000, 0.000, 0.000, 09:22:40.183, 5
145, 17.79, 0.00, 0.00, 21.77, 0.000, 0.000, 0.000, 09:22:40.198, 5
146, 17.44, 0.00, 0.00, 21.78, 0.000, 0.000, 0.000, 09:22:40.198, 5
147, 16.33, 0.00, 0.00, 15.60, 0.000, 0.000, 0.000, 09:22:40.216, 5
148, 9.63, 0.00, 0.00, 12.59, 0.000, 0.000, 0.000, 09:22:40.217, 5
149, 10.14, 0.00, 0.00, 12.93, 0.000, 0.000, 0.000, 09:22:40.217, 5
150, 17.51, 0.00, 0.00, 20.87, 0.000, 0.000, 0.000, 09:22:40.217, 5
151, 13.55, 0.00, 0.00, 15.13, 0.000, 0.000, 0.000, 09:22:40.227, 5
152, 11.07, 0.00, 0.00, 6.19, 0.000, 0.000, 0.000, 09:22:40.228, 5
