%OpenBCI Raw EEG Data
%
%Sample Rate = 200.0 Hz
%First Column = SampleIndex
%Last Column = Timestamp 
%Other Columns = EEG data in microvolts followed by Accel Data (in G) interleaved with Aux Data
0, 8.43, 0.00, 10.77, 12.86, 0.000, 0.000, 0.000, 09:17:55.232
1, 13.01, 0.00, 16.87, 21.75, 0.000, 0.000, 0.000, 09:17:55.243
2, 18.33, 0.00, 21.68, 19.92, 0.000, 0.000, 0.000, 09:17:55.244
3, 10.56, 0.00, 18.93, 16.44, 0.000, 0.000, 0.000, 09:17:55.252
4, 10.31, 0.00, 15.13, 17.36, 0.000, 0.000, 0.000, 09:17:55.254
5, 13.82, 0.00, 18.60, 18.30, 0.000, 0.000, 0.000, 09:17:55.256
6, 19.11, 0.00, 21.13, 18.46, 0.000, 0.000, 0.000, 09:17:55.258
7, 16.66, 0.00, 18.02, 11.60, 0.000, 0.000, 0.000, 09:17:55.266
8, 10.77, 0.00, 13.52, 9.48, 0.000, 0.000, 0.000, 09:17:55.267
9, 11.56, 0.00, 21.58, 17.73, 0.000, 0.000, 0.000, 09:17:55.282
10, 16.59, 0.00, 22.08, 17.57, 0.000, 0.000, 0.000, 09:17:55.283
11, 13.18, 0.00, 12.18, 11.49, 0.000, 0.000, 0.000, 09:17:55.283
12, 11.01, 0.00, 12.21, 14.95, 0.000, 0.000, 0.000, 09:17:55.284
13, 19.17, 0.00, 22.45, 23.34, 0.000, 0.000, 0.000, 09:17:55.296
14, 20.33, 0.00, 18.30, 19.71, 0.000, 0.000, 0.000, 09:17:55.297
15, 12.51, 0.00, 18.33, 15.18, 0.000, 0.000, 0.000, 09:17:55.312
16, 11.12, 0.00, 16.72, 14.01, 0.000, 0.000, 0.000, 09:17:55.313
17, 15.53, 0.00, 17.09, 20.27, 0.000, 0.000, 0.000, 09:17:55.314
18, 15.26, 0.00, 19.15, 19.88, 0.000, 0.000, 0.000, 09:17:55.314
19, 16.38, 0.00, 14.34, 17.26, 0.000, 0.000, 0.000, 09:17:55.328
20, 10.23, 0.00, 9.49, 8.40, 0.000, 0.000, 0.000, 09:17:55.328
21, 15.59, 0.00, 20.67, 17.60, 0.000, 0.000, 0.000, 09:17:55.342
22, 18.83, 0.00, 18.58, 19.29, 0.000, 0.000, 0.000, 09:17:55.343
23, 15.97, 0.00, 13.09, 12.07, 0.000, 0.000, 0.000, 09:17:55.344
24, 12.98, 0.00, 17.55, 11.51, 0.000, 0.000, 0.000, 09:17:55.345
25, 11.65, 0.00, 18.93, 17.82, 0.000, 0.000, 0.000, 09:17:55.358
26, 16.26, 0.00, 19.24, 18.98, 0.000, 0.000, 0.000, 09:17:55.359
27, 12.95, 0.00, 18.47, 12.75, 0.000, 0.000, 0.000, 09:17:55.372
28, 14.57, 0.00, 15.06, 15.51, 0.000, 0.000, 0.000, 09:17:55.373
29, 13.87, 0.00, 15.17, 17.70, 0.000, 0.000, 0.000, 09:17:55.374
30, 19.63, 0.00, 21.04, 18.71, 0.000, 0.000, 0.000, 09:17:55.376
31, 14.68, 0.00, 15.39, 10.66, 0.000, 0.000, 0.000, 09:17:55.387
32, 12.32, 0.00, 13.33, 9.69, 0.000, 0.000, 0.000, 09:17:55.388
33, 14.44, 0.00, 17.62, 18.99, 0.000, 0.000, 0.000, 09:17:55.403
34, 17.75, 0.00, 23.00, 21.75, 0.000, 0.000, 0.000, 09:17:55.403
35, 11.81, 0.00, 12.83, 8.75, 0.000, 0.000, 0.000, 09:17:55.404
36, 9.94, 0.00, 16.75, 18.30, 0.000, 0.000, 0.000, 09:17:55.404
37, 12.80, 0.00, 20.39, 18.04, 0.000, 0.000, 0.000, 09:17:55.417
38, 14.51, 0.00, 18.17, 14.89, 0.000, 0.000, 0.000, 09:17:55.418
39, 14.32, 0.00, 16.18, 15.44, 0.000, 0.000, 0.000, 09:17:55.432
40, 13.23, 0.00, 10.20, 11.75, 0.000, 0.000, 0.000, 09:17:55.432
41, 14.88, 0.00, 18.75, 15.49, 0.000, 0.000, 0.000, 09:17:55.433
42, 17.02, 0.00, 22.70, 15.54, 0.000, 0.000, 0.000, 09:17:55.434
43, 14.29, 0.00, 14.77, 13.33, 0.000, 0.000, 0.000, 09:17:55.449
44, 11.66, 0.00, 15.34, 11.40, 0.000, 0.000, 0.000, 09:17:55.449
45, 13.71, 0.00, 23.78, 18.57, 0.000, 0.000, 0.000, 09:17:55.462
46, 17.10, 0.00, 18.84, 20.70, 0.000, 0.000, 0.000, 09:17:55.463
47, 14.51, 0.00, 10.74, 11.74, 0.000, 0.000, 0.000, 09:17:55.463
48, 13.53, 0.00, 15.19, 14.70, 0.000, 0.000, 0.000, 09:17:55.464
49, 13.85, 0.00, 18.65, 19.36, 0.000, 0.000, 0.000, 09:17:55.484
50, 18.20, 0.00, 17.27, 17.61, 0.000, 0.000, 0.000, 09:17:55.484
51, 10.92, 0.00, 13.54, 15.47, 0.000, 0.000, 0.000, 09:17:55.492
52, 12.64, 0.00, 18.06, 16.30, 0.000, 0.000, 0.000, 09:17:55.492
53, 17.40, 0.00, 17.10, 16.10, 0.000, 0.000, 0.000, 09:17:55.494
54, 19.10, 0.00, 21.85, 20.98, 0.000, 0.000, 0.000, 09:17:55.494
55, 13.23, 0.00, 21.11, 17.16, 0.000, 0.000, 0.000, 09:17:55.508
56, 13.00, 0.00, 13.85, 11.74, 0.000, 0.000, 0.000, 09:17:55.509
57, 19.52, 0.00, 17.30, 20.21, 0.000, 0.000, 0.000, 09:17:55.522
58, 17.37, 0.00, 21.80, 21.24, 0.000, 0.000, 0.000, 09:17:55.522
59, 13.75, 0.00, 13.66, 13.32, 0.000, 0.000, 0.000, 09:17:55.523
60, 12.91, 0.00, 13.51, 10.15, 0.000, 0.000, 0.000, 09:17:55.523
61, 16.25, 0.00, 23.45, 23.54, 0.000, 0.000, 0.000, 09:17:55.537
62, 13.97, 0.00, 14.61, 11.78, 0.000, 0.000, 0.000, 09:17:55.537
63, 13.76, 0.00, 19.54, 21.11, 0.000, 0.000, 0.000, 09:17:55.552
64, 12.91, 0.00, 15.26, 16.38, 0.000, 0.000, 0.000, 09:17:55.552
65, 20.45, 0.00, 19.72, 19.47, 0.000, 0.000, 0.000, 09:17:55.552
66, 18.90, 0.00, 19.20, 20.48, 0.000, 0.000, 0.000, 09:17:55.553
67, 10.99, 0.00, 15.27, 13.46, 0.000, 0.000, 0.000, 09:17:55.566
68, 10.95, 0.00, 10.32, 11.58, 0.000, 0.000, 0.000, 09:17:55.567
69, 18.94, 0.00, 22.43, 24.62, 0.000, 0.000, 0.000, 09:17:55.582
70, 14.94, 0.00, 21.63, 18.05, 0.000, 0.000, 0.000, 09:17:55.582
71, 11.91, 0.00, 13.73, 13.48, 0.000, 0.000, 0.000, 09:17:55.583
72, 10.36, 0.00, 16.23, 14.68, 0.000, 0.000, 0.000, 09:17:55.583
73, 18.63, 0.00, 18.89, 16.24, 0.000, 0.000, 0.000, 09:17:55.597
74, 16.85, 0.00, 14.27, 17.88, 0.000, 0.000, 0.000, 09:17:55.597
75, 18.20, 0.00, 21.79, 14.20, 0.000, 0.000, 0.000, 09:17:55.611
76, 14.80, 0.00, 13.77, 12.58, 0.000, 0.000, 0.000, 09:17:55.612
77, 14.14, 0.00, 15.05, 14.83, 0.000, 0.000, 0.000, 09:17:55.612
78, 16.51, 0.00, 23.21, 17.05, 0.000, 0.000, 0.000, 09:17:55.612
79, 14.20, 0.00, 14.29, 17.18, 0.000, 0.000, 0.000, 09:17:55.627
80, 13.60, 0.00, 13.39, 10.15, 0.000, 0.000, 0.000, 09:17:55.628
81, 15.11, 0.00, 20.33, 20.78, 0.000, 0.000, 0.000, 09:17:55.642
82, 17.69, 0.00, 23.30, 17.67, 0.000, 0.000, 0.000, 09:17:55.642
83, 15.80, 0.00, 15.24, 10.02, 0.000, 0.000, 0.000, 09:17:55.642
84, 13.85, 0.00, 14.08, 17.73, 0.000, 0.000, 0.000, 09:17:55.643
85, 15.58, 0.00, 19.10, 15.75, 0.000, 0.000, 0.000, 09:17:55.657
86, 14.82, 0.00, 20.59, 17.56, 0.000, 0.000, 0.000, 09:17:55.658
87, 11.87, 0.00, 16.55, 16.31, 0.000, 0.000, 0.000, 09:17:55.672
88, 12.58, 0.00, 15.89, 17.76, 0.000, 0.000, 0.000, 09:17:55.672
89, 18.54, 0.00, 18.09, 18.01, 0.000, 0.000, 0.000, 09:17:55.672
90, 17.29, 0.00, 18.52, 20.89, 0.000, 0.000, 0.000, 09:17:55.673
91, 13.98, 0.00, 12.72, 14.24, 0.000, 0.000, 0.000, 09:17:55.687
92, 9.79, 0.00, 13.52, 8.39, 0.000, 0.000, 0.000, 09:17:55.687
93, 17.31, 0.00, 20.94, 22.47, 0.000, 0.000, 0.000, 09:17:55.702
94, 14.13, 0.00, 18.24, 18.89, 0.000, 0.000, 0.000, 09:17:55.702
95, 7.01, 0.00, 12.76, 11.10, 0.000, 0.000, 0.000, 09:17:55.703
96, 8.65, 0.00, 12.56, 12.01, 0.000, 0.000, 0.000, 09:17:55.703
97, 16.18, 0.00, 17.81, 22.26, 0.000, 0.000, 0.000, 09:17:55.716
98, 18.77, 0.00, 17.64, 15.28, 0.000, 0.000, 0.000, 09:17:55.717
99, 11.44, 0.00, 16.32, 14.72, 0.000, 0.000, 0.000, 09:17:55.732
100, 15.80, 0.00, 14.97, 12.54, 0.000, 0.000, 0.000, 09:17:55.732
101, 15.28, 0.00, 17.61, 13.07, 0.000, 0.000, 0.000, 09:17:55.733
102, 14.31, 0.00, 21.37, 15.76, 0.000, 0.000, 0.000, 09:17:55.735
103, 14.15, 0.00, 17.59, 10.96, 0.000, 0.000, 0.000, 09:17:55.748
104, 10.08, 0.00, 11.32, 13.16, 0.000, 0.000, 0.000, 09:17:55.749
105, 15.49, 0.00, 25.55, 18.88, 0.000, 0.000, 0.000, 09:17:55.763
106, 20.93, 0.00, 21.22, 20.62, 0.000, 0.000, 0.000, 09:17:55.764
107, 13.23, 0.00, 13.41, 8.98, 0.000, 0.000, 0.000, 09:17:55.764
108, 11.22, 0.00, 13.58, 15.06, 0.000, 0.000, 0.000, 09:17:55.764
109, 13.88, 0.00, 18.01, 16.88, 0.000, 0.000, 0.000, 09:17:55.780
110, 15.39, 0.00, 19.08, 14.23, 0.000, 0.000, 0.000, 09:17:55.780
111, 14.87, 0.00, 12.90, 14.27, 0.000, 0.000, 0.000, 09:17:55.793
112, 13.86, 0.00, 15.65, 16.14, 0.000, 0.000, 0.000, 09:17:55.794
113, 14.13, 0.00, 16.95, 14.56, 0.000, 0.000, 0.000, 09:17:55.795
114, 13.06, 0.00, 19.76, 20.03, 0.000, 0.000, 0.000, 09:17:55.796
115, 15.24, 0.00, 15.63, 17.77, 0.000, 0.000, 0.000, 09:17:55.807
116, 12.02, 0.00, 10.98, 12.06, 0.000, 0.000, 0.000, 09:17:55.809
117, 22.54, 0.00, 27.20, 22.73, 0.000, 0.000, 0.000, 09:17:55.831
118, 17.71, 0.00, 21.82, 15.74, 0.000, 0.000, 0.000, 09:17:55.831
119, 12.62, 0.00, 13.75, 13.21, 0.000, 0.000, 0.000, 09:17:55.832
120, 11.62, 0.00, 13.89, 15.44, 0.000, 0.000, 0.000, 09:17:55.832
121, 18.45, 0.00, 19.66, 19.24, 0.000, 0.000, 0.000, 09:17:55.837
122, 17.21, 0.00, 15.07, 17.19, 0.000, 0.000, 0.000, 09:17:55.837
123, 12.37, 0.00, 13.41, 15.75, 0.000, 0.000, 0.000, 09:17:55.852
124, 11.12, 0.00, 14.82, 13.37, 0.000, 0.000, 0.000, 09:17:55.853
125, 15.97, 0.00, 18.35, 15.31, 0.000, 0.000, 0.000, 09:17:55.878
126, 16.00, 0.00, 17.06, 21.34, 0.000, 0.000, 0.000, 09:17:55.878
127, 11.51, 0.00, 19.40, 15.16, 0.000, 0.000, 0.000, 09:17:55.878
128, 12.62, 0.00, 12.14, 10.89, 0.000, 0.000, 0.000, 09:17:55.879
129, 15.65, 0.00, 20.62, 22.19, 0.000, 0.000, 0.000, 09:17:55.882
130, 17.46, 0.00, 22.27, 22.52, 0.000, 0.000, 0.000, 09:17:55.882
131, 10.15, 0.00, 11.28, 11.05, 0.000, 0.000, 0.000, 09:17:55.889
132, 11.48, 0.00, 16.03, 13.52, 0.000, 0.000, 0.000, 09:17:55.889
133, 16.99, 0.00, 21.30, 17.31, 0.000, 0.000, 0.000, 09:17:55.897
134, 20.54, 0.00, 15.53, 20.42, 0.000, 0.000, 0.000, 09:17:55.897
135, 13.68, 0.00, 19.22, 18.14, 0.000, 0.000, 0.000, 09:17:55.911
136, 13.16, 0.00, 13.38, 14.36, 0.000, 0.000, 0.000, 09:17:55.912
137, 16.23, 0.00, 17.18, 17.84, 0.000, 0.000, 0.000, 09:17:55.912
138, 17.87, 0.00, 19.62, 18.77, 0.000, 0.000, 0.000, 09:17:55.912
139, 15.82, 0.00, 20.05, 17.38, 0.000, 0.000, 0.000, 09:17:55.928
140, 9.73, 0.00, 10.56, 13.30, 0.000, 0.000, 0.000, 09:17:55.929
141, 14.51, 0.00, 20.27, 20.48, 0.000, 0.000, 0.000, 09:17:55.942
142, 17.16, 0.00, 21.33, 20.34, 0.000, 0.000, 0.000, 09:17:55.942
143, 10.92, 0.00, 14.04, 13.17, 0.000, 0.000, 0.000, 09:17:55.942
144, 12.38, 0.00, 15.82, 15.02, 0.000, 0.000, 0.000, 09:17:55.942
145, 16.17, 0.00, 17.21, 15.94, 0.000, 0.000, 0.000, 09:17:55.957
146, 15.92, 0.00, 16.22, 15.81, 0.000, 0.000, 0.000, 09:17:55.958
147, 12.11, 0.00, 19.73, 16.89, 0.000, 0.000, 0.000, 09:17:55.972
148, 14.97, 0.00, 16.48, 8.79, 0.000, 0.000, 0.000, 09:17:55.972
149, 19.12, 0.00, 20.70, 16.74, 0.000, 0.000, 0.000, 09:17:55.972
150, 17.99, 0.00, 19.70, 19.62, 0.000, 0.000, 0.000, 09:17:55.973
151, 11.52, 0.00, 16.03, 6.59, 0.000, 0.000, 0.000, 09:17:55.987
152, 8.20, 0.00, 12.04, 7.93, 0.000, 0.000, 0.000, 09:17:55.987
153, 17.01, 0.00, 20.39, 15.37, 0.000, 0.000, 0.000, 09:17:56.002
154, 18.37, 0.00, 19.91, 19.50, 0.000, 0.000, 0.000, 09:17:56.002
155, 10.84, 0.00, 13.61, 12.21, 0.000, 0.000, 0.000, 09:17:56.002
156, 13.25, 0.00, 12.52, 12.35, 0.000, 0.000, 0.000, 09:17:56.002
157, 17.69, 0.00, 20.79, 19.45, 0.000, 0.000, 0.000, 09:17:56.017
158, 17.21, 0.00, 18.15, 15.26, 0.000, 0.000, 0.000, 09:17:56.017
159, 13.86, 0.00, 17.66, 14.45, 0.000, 0.000, 0.000, 09:17:56.032
160, 11.75, 0.00, 13.89, 13.40, 0.000, 0.000, 0.000, 09:17:56.033
161, 14.23, 0.00, 21.02, 16.46, 0.000, 0.000, 0.000, 09:17:56.033
162, 14.70, 0.00, 15.48, 16.09, 0.000, 0.000, 0.000, 09:17:56.034
163, 15.36, 0.00, 15.93, 14.11, 0.000, 0.000, 0.000, 09:17:56.047
164, 14.73, 0.00, 14.17, 9.05, 0.000, 0.000, 0.000, 09:17:56.048
165, 16.52, 0.00, 21.71, 22.93, 0.000, 0.000, 0.000, 09:17:56.063
166, 18.85, 0.00, 22.28, 15.13, 0.000, 0.000, 0.000, 09:17:56.063
167, 12.83, 0.00, 15.71, 7.53, 0.000, 0.000, 0.000, 09:17:56.078
168, 11.69, 0.00, 15.52, 12.05, 0.000, 0.000, 0.000, 09:17:56.078
169, 16.16, 0.00, 18.29, 17.75, 0.000, 0.000, 0.000, 09:17:56.079
170, 16.20, 0.00, 18.43, 21.62, 0.000, 0.000, 0.000, 09:17:56.079
171, 12.17, 0.00, 13.79, 14.74, 0.000, 0.000, 0.000, 09:17:56.092
172, 16.72, 0.00, 14.40, 16.25, 0.000, 0.000, 0.000, 09:17:56.093
173, 14.27, 0.00, 18.54, 13.75, 0.000, 0.000, 0.000, 09:17:56.093
174, 17.18, 0.00, 23.04, 24.73, 0.000, 0.000, 0.000, 09:17:56.093
175, 11.00, 0.00, 13.90, 13.48, 0.000, 0.000, 0.000, 09:17:56.107
176, 8.87, 0.00, 14.90, 13.79, 0.000, 0.000, 0.000, 09:17:56.109
177, 20.11, 0.00, 20.32, 21.51, 0.000, 0.000, 0.000, 09:17:56.122
178, 17.01, 0.00, 21.04, 21.57, 0.000, 0.000, 0.000, 09:17:56.123
179, 9.64, 0.00, 12.15, 11.25, 0.000, 0.000, 0.000, 09:17:56.124
180, 9.22, 0.00, 13.67, 15.31, 0.000, 0.000, 0.000, 09:17:56.124
181, 17.15, 0.00, 21.24, 20.83, 0.000, 0.000, 0.000, 09:17:56.137
182, 16.61, 0.00, 18.19, 20.15, 0.000, 0.000, 0.000, 09:17:56.138
183, 13.61, 0.00, 15.96, 17.00, 0.000, 0.000, 0.000, 09:17:56.153
184, 15.20, 0.00, 17.49, 17.23, 0.000, 0.000, 0.000, 09:17:56.153
185, 16.44, 0.00, 16.89, 18.21, 0.000, 0.000, 0.000, 09:17:56.153
186, 18.59, 0.00, 24.47, 19.54, 0.000, 0.000, 0.000, 09:17:56.153
187, 10.59, 0.00, 11.13, 14.38, 0.000, 0.000, 0.000, 09:17:56.167
188, 9.83, 0.00, 8.59, 6.30, 0.000, 0.000, 0.000, 09:17:56.167
189, 16.04, 0.00, 21.01, 17.74, 0.000, 0.000, 0.000, 09:17:56.182
190, 13.40, 0.00, 22.51, 20.42, 0.000, 0.000, 0.000, 09:17:56.182
191, 10.30, 0.00, 12.83, 10.99, 0.000, 0.000, 0.000, 09:17:56.183
192, 11.67, 0.00, 18.02, 14.55, 0.000, 0.000, 0.000, 09:17:56.183
193, 13.60, 0.00, 21.46, 17.04, 0.000, 0.000, 0.000, 09:17:56.197
194, 15.73, 0.00, 15.35, 14.55, 0.000, 0.000, 0.000, 09:17:56.198
195, 16.68, 0.00, 19.86, 15.13, 0.000, 0.000, 0.000, 09:17:56.213
196, 13.15, 0.00, 13.16, 15.02, 0.000, 0.000, 0.000, 09:17:56.214
197, 19.65, 0.00, 17.39, 14.98, 0.000, 0.000, 0.000, 09:17:56.214
198, 15.13, 0.00, 21.29, 14.45, 0.000, 0.000, 0.000, 09:17:56.214
199, 14.85, 0.00, 11.96, 14.66, 0.000, 0.000, 0.000, 09:17:56.228
200, 12.07, 0.00, 16.88, 12.91, 0.000, 0.000, 0.000, 09:17:56.228
0, 18.70, 0.00, 22.76, 22.16, 0.000, 0.000, 0.000, 09:17:56.228
1, 17.26, 0.00, 19.52, 14.77, 0.000, 0.000, 0.000, 09:17:56.242
2, 11.87, 0.00, 13.60, 12.22, 0.000, 0.000, 0.000, 09:17:56.242
3, 15.53, 0.00, 14.60, 19.63, 0.000, 0.000, 0.000, 09:17:56.257
4, 14.91, 0.00, 21.39, 17.35, 0.000, 0.000, 0.000, 09:17:56.258
5, 11.70, 0.00, 16.68, 12.17, 0.000, 0.000, 0.000, 09:17:56.259
6, 13.34, 0.00, 11.13, 8.70, 0.000, 0.000, 0.000, 09:17:56.260
7, 17.48, 0.00, 14.37, 12.50, 0.000, 0.000, 0.000, 09:17:56.272
8, 14.62, 0.00, 17.32, 15.07, 0.000, 0.000, 0.000, 09:17:56.272
9, 19.30, 0.00, 23.44, 22.92, 0.000, 0.000, 0.000, 09:17:56.287
10, 10.33, 0.00, 14.49, 11.21, 0.000, 0.000, 0.000, 09:17:56.287
11, 11.01, 0.00, 13.54, 10.34, 0.000, 0.000, 0.000, 09:17:56.287
12, 17.68, 0.00, 21.60, 17.83, 0.000, 0.000, 0.000, 09:17:56.287
13, 19.58, 0.00, 18.79, 20.64, 0.000, 0.000, 0.000, 09:17:56.308
14, 10.47, 0.00, 13.49, 9.27, 0.000, 0.000, 0.000, 09:17:56.309
15, 10.35, 0.00, 14.95, 12.26, 0.000, 0.000, 0.000, 09:17:56.316
16, 14.00, 0.00, 22.41, 18.76, 0.000, 0.000, 0.000, 09:17:56.317
17, 15.74, 0.00, 13.73, 17.55, 0.000, 0.000, 0.000, 09:17:56.317
18, 14.96, 0.00, 18.98, 12.72, 0.000, 0.000, 0.000, 09:17:56.317
19, 12.64, 0.00, 14.23, 12.70, 0.000, 0.000, 0.000, 09:17:56.332
20, 12.16, 0.00, 17.15, 16.61, 0.000, 0.000, 0.000, 09:17:56.332
21, 19.14, 0.00, 17.40, 19.90, 0.000, 0.000, 0.000, 09:17:56.346
22, 12.88, 0.00, 17.02, 13.59, 0.000, 0.000, 0.000, 09:17:56.347
23, 13.65, 0.00, 14.84, 14.74, 0.000, 0.000, 0.000, 09:17:56.347
24, 19.21, 0.00, 19.73, 22.18, 0.000, 0.000, 0.000, 09:17:56.347
25, 16.15, 0.00, 21.01, 16.81, 0.000, 0.000, 0.000, 09:17:56.362
26, 10.77, 0.00, 11.64, 10.53, 0.000, 0.000, 0.000, 09:17:56.362
27, 12.41, 0.00, 18.39, 17.90, 0.000, 0.000, 0.000, 09:17:56.378
28, 14.81, 0.00, 16.91, 20.48, 0.000, 0.000, 0.000, 09:17:56.378
29, 15.04, 0.00, 14.89, 16.58, 0.000, 0.000, 0.000, 09:17:56.378
30, 14.10, 0.00, 9.83, 12.12, 0.000, 0.000, 0.000, 09:17:56.378
31, 12.83, 0.00, 10.41, 13.21, 0.000, 0.000, 0.000, 09:17:56.391
32, 15.67, 0.00, 18.50, 13.49, 0.000, 0.000, 0.000, 09:17:56.392
33, 13.55, 0.00, 23.16, 20.92, 0.000, 0.000, 0.000, 09:17:56.408
34, 8.87, 0.00, 15.60, 18.50, 0.000, 0.000, 0.000, 09:17:56.409
35, 13.71, 0.00, 16.33, 11.32, 0.000, 0.000, 0.000, 09:17:56.411
36, 15.69, 0.00, 20.52, 22.07, 0.000, 0.000, 0.000, 09:17:56.412
37, 18.23, 0.00, 21.37, 20.53, 0.000, 0.000, 0.000, 09:17:56.422
38, 10.90, 0.00, 14.71, 10.39, 0.000, 0.000, 0.000, 09:17:56.423
39, 13.50, 0.00, 17.09, 17.24, 0.000, 0.000, 0.000, 09:17:56.437
40, 18.22, 0.00, 24.34, 23.34, 0.000, 0.000, 0.000, 09:17:56.438
41, 16.09, 0.00, 17.99, 11.79, 0.000, 0.000, 0.000, 09:17:56.438
42, 13.65, 0.00, 13.07, 13.99, 0.000, 0.000, 0.000, 09:17:56.439
43, 13.35, 0.00, 17.17, 15.57, 0.000, 0.000, 0.000, 09:17:56.451
44, 16.65, 0.00, 21.58, 14.75, 0.000, 0.000, 0.000, 09:17:56.452
45, 17.45, 0.00, 19.97, 20.92, 0.000, 0.000, 0.000, 09:17:56.467
46, 12.24, 0.00, 8.97, 10.51, 0.000, 0.000, 0.000, 09:17:56.467
47, 12.41, 0.00, 13.90, 10.33, 0.000, 0.000, 0.000, 09:17:56.468
48, 17.18, 0.00, 20.00, 18.54, 0.000, 0.000, 0.000, 09:17:56.468
49, 15.26, 0.00, 18.85, 19.90, 0.000, 0.000, 0.000, 09:17:56.481
50, 11.22, 0.00, 16.39, 10.72, 0.000, 0.000, 0.000, 09:17:56.482
51, 12.51, 0.00, 17.97, 16.30, 0.000, 0.000, 0.000, 09:17:56.498
52, 15.33, 0.00, 21.19, 18.52, 0.000, 0.000, 0.000, 09:17:56.498
53, 15.69, 0.00, 17.40, 15.65, 0.000, 0.000, 0.000, 09:17:56.498
54, 14.41, 0.00, 10.89, 13.04, 0.000, 0.000, 0.000, 09:17:56.498
55, 13.53, 0.00, 20.82, 14.81, 0.000, 0.000, 0.000, 09:17:56.515
56, 15.56, 0.00, 17.85, 17.82, 0.000, 0.000, 0.000, 09:17:56.515
57, 18.34, 0.00, 22.42, 21.60, 0.000, 0.000, 0.000, 09:17:56.528
58, 13.95, 0.00, 13.78, 10.65, 0.000, 0.000, 0.000, 09:17:56.529
59, 10.12, 0.00, 14.53, 10.07, 0.000, 0.000, 0.000, 09:17:56.530
60, 20.24, 0.00, 23.56, 22.83, 0.000, 0.000, 0.000, 09:17:56.530
61, 16.72, 0.00, 19.77, 17.56, 0.000, 0.000, 0.000, 09:17:56.543
62, 9.42, 0.00, 8.72, 10.20, 0.000, 0.000, 0.000, 09:17:56.543
63, 16.49, 0.00, 16.33, 12.43, 0.000, 0.000, 0.000, 09:17:56.558
64, 17.84, 0.00, 18.97, 18.05, 0.000, 0.000, 0.000, 09:17:56.558
65, 22.21, 0.00, 18.48, 22.41, 0.000, 0.000, 0.000, 09:17:56.559
66, 13.79, 0.00, 17.27, 16.51, 0.000, 0.000, 0.000, 09:17:56.559
67, 14.89, 0.00, 15.47, 17.18, 0.000, 0.000, 0.000, 09:17:56.579
68, 17.41, 0.00, 21.13, 19.18, 0.000, 0.000, 0.000, 09:17:56.579
69, 17.21, 0.00, 21.92, 21.28, 0.000, 0.000, 0.000, 09:17:56.587
70, 10.75, 0.00, 13.16, 11.98, 0.000, 0.000, 0.000, 09:17:56.587
71, 13.14, 0.00, 14.34, 14.74, 0.000, 0.000, 0.000, 09:17:56.587
72, 14.80, 0.00, 22.06, 19.56, 0.000, 0.000, 0.000, 09:17:56.588
73, 14.80, 0.00, 21.68, 18.71, 0.000, 0.000, 0.000, 09:17:56.602
74, 10.25, 0.00, 9.73, 6.24, 0.000, 0.000, 0.000, 09:17:56.602
75, 12.74, 0.00, 18.93, 14.52, 0.000, 0.000, 0.000, 09:17:56.617
76, 15.88, 0.00, 21.65, 18.55, 0.000, 0.000, 0.000, 09:17:56.617
77, 19.12, 0.00, 19.86, 15.19, 0.000, 0.000, 0.000, 09:17:56.617
78, 15.38, 0.00, 13.35, 13.74, 0.000, 0.000, 0.000, 09:17:56.617
79, 14.64, 0.00, 11.26, 14.27, 0.000, 0.000, 0.000, 09:17:56.632
80, 14.66, 0.00, 15.28, 13.36, 0.000, 0.000, 0.000, 09:17:56.632
81, 16.79, 0.00, 21.97, 22.33, 0.000, 0.000, 0.000, 09:17:56.647
82, 12.99, 0.00, 14.00, 15.32, 0.000, 0.000, 0.000, 09:17:56.647
83, 17.24, 0.00, 15.15, 15.30, 0.000, 0.000, 0.000, 09:17:56.647
84, 17.34, 0.00, 20.28, 20.87, 0.000, 0.000, 0.000, 09:17:56.648
85, 16.34, 0.00, 18.51, 16.19, 0.000, 0.000, 0.000, 09:17:56.662
86, 7.84, 0.00, 8.85, 6.50, 0.000, 0.000, 0.000, 09:17:56.662
87, 9.24, 0.00, 18.94, 16.03, 0.000, 0.000, 0.000, 09:17:56.678
88, 16.91, 0.00, 20.55, 18.69, 0.000, 0.000, 0.000, 09:17:56.678
89, 17.46, 0.00, 18.31, 15.69, 0.000, 0.000, 0.000, 09:17:56.679
90, 9.98, 0.00, 11.60, 13.13, 0.000, 0.000, 0.000, 09:17:56.679
91, 13.53, 0.00, 13.22, 15.38, 0.000, 0.000, 0.000, 09:17:56.692
92, 16.44, 0.00, 20.97, 17.77, 0.000, 0.000, 0.000, 09:17:56.692
93, 17.57, 0.00, 23.28, 18.04, 0.000, 0.000, 0.000, 09:17:56.707
94, 13.65, 0.00, 16.00, 12.44, 0.000, 0.000, 0.000, 09:17:56.708
95, 11.42, 0.00, 13.55, 13.77, 0.000, 0.000, 0.000, 09:17:56.709
96, 14.12, 0.00, 19.96, 18.85, 0.000, 0.000, 0.000, 09:17:56.709
97, 16.43, 0.00, 18.02, 19.36, 0.000, 0.000, 0.000, 09:17:56.722
98, 8.28, 0.00, 13.33, 9.52, 0.000, 0.000, 0.000, 09:17:56.722
99, 17.00, 0.00, 17.55, 17.38, 0.000, 0.000, 0.000, 09:17:56.737
100, 16.71, 0.00, 22.04, 21.70, 0.000, 0.000, 0.000, 09:17:56.737
101, 14.77, 0.00, 15.14, 13.25, 0.000, 0.000, 0.000, 09:17:56.737
102, 13.25, 0.00, 13.49, 13.88, 0.000, 0.000, 0.000, 09:17:56.737
103, 12.93, 0.00, 16.55, 15.99, 0.000, 0.000, 0.000, 09:17:56.751
104, 15.59, 0.00, 20.59, 16.57, 0.000, 0.000, 0.000, 09:17:56.752
105, 15.42, 0.00, 17.52, 22.17, 0.000, 0.000, 0.000, 09:17:56.766
106, 13.29, 0.00, 14.60, 9.94, 0.000, 0.000, 0.000, 09:17:56.767
107, 11.62, 0.00, 13.50, 10.53, 0.000, 0.000, 0.000, 09:17:56.767
108, 20.56, 0.00, 20.92, 20.98, 0.000, 0.000, 0.000, 09:17:56.767
109, 19.13, 0.00, 16.62, 16.60, 0.000, 0.000, 0.000, 09:17:56.782
110, 12.00, 0.00, 9.17, 12.61, 0.000, 0.000, 0.000, 09:17:56.782
111, 15.21, 0.00, 19.96, 19.33, 0.000, 0.000, 0.000, 09:17:56.797
112, 15.09, 0.00, 22.85, 20.86, 0.000, 0.000, 0.000, 09:17:56.797
113, 16.10, 0.00, 18.15, 16.81, 0.000, 0.000, 0.000, 09:17:56.798
114, 9.73, 0.00, 14.84, 11.54, 0.000, 0.000, 0.000, 09:17:56.798
115, 15.17, 0.00, 14.71, 13.21, 0.000, 0.000, 0.000, 09:17:56.813
116, 16.24, 0.00, 17.23, 15.98, 0.000, 0.000, 0.000, 09:17:56.813
117, 18.01, 0.00, 20.73, 15.07, 0.000, 0.000, 0.000, 09:17:56.827
118, 14.92, 0.00, 16.46, 11.06, 0.000, 0.000, 0.000, 09:17:56.829
119, 13.83, 0.00, 13.59, 9.06, 0.000, 0.000, 0.000, 09:17:56.830
120, 13.15, 0.00, 23.04, 21.61, 0.000, 0.000, 0.000, 09:17:56.830
121, 13.96, 0.00, 17.07, 16.17, 0.000, 0.000, 0.000, 09:17:56.842
122, 9.76, 0.00, 10.41, 8.70, 0.000, 0.000, 0.000, 09:17:56.843
123, 17.99, 0.00, 14.20, 13.52, 0.000, 0.000, 0.000, 09:17:56.858
124, 16.86, 0.00, 24.92, 20.53, 0.000, 0.000, 0.000, 09:17:56.859
125, 15.48, 0.00, 16.67, 18.33, 0.000, 0.000, 0.000, 09:17:56.861
126, 13.43, 0.00, 18.55, 15.42, 0.000, 0.000, 0.000, 09:17:56.862
127, 11.31, 0.00, 18.89, 16.38, 0.000, 0.000, 0.000, 09:17:56.873
128, 16.71, 0.00, 14.05, 17.43, 0.000, 0.000, 0.000, 09:17:56.873
129, 16.96, 0.00, 20.09, 20.67, 0.000, 0.000, 0.000, 09:17:56.888
130, 15.01, 0.00, 13.66, 10.15, 0.000, 0.000, 0.000, 09:17:56.888
131, 12.08, 0.00, 16.36, 13.61, 0.000, 0.000, 0.000, 09:17:56.895
132, 17.23, 0.00, 21.85, 23.45, 0.000, 0.000, 0.000, 09:17:56.896
133, 16.57, 0.00, 16.75, 19.92, 0.000, 0.000, 0.000, 09:17:56.903
134, 6.73, 0.00, 12.29, 8.88, 0.000, 0.000, 0.000, 09:17:56.903
135, 15.02, 0.00, 17.67, 18.10, 0.000, 0.000, 0.000, 09:17:56.917
136, 12.96, 0.00, 19.94, 22.87, 0.000, 0.000, 0.000, 09:17:56.918
137, 17.52, 0.00, 17.16, 14.57, 0.000, 0.000, 0.000, 09:17:56.918
138, 12.76, 0.00, 13.06, 12.80, 0.000, 0.000, 0.000, 09:17:56.919
139, 13.61, 0.00, 16.60, 15.38, 0.000, 0.000, 0.000, 09:17:56.934
140, 17.58, 0.00, 20.42, 16.30, 0.000, 0.000, 0.000, 09:17:56.934
141, 15.68, 0.00, 19.57, 18.95, 0.000, 0.000, 0.000, 09:17:56.949
142, 11.39, 0.00, 16.98, 16.77, 0.000, 0.000, 0.000, 09:17:56.949
143, 13.95, 0.00, 13.43, 11.72, 0.000, 0.000, 0.000, 09:17:56.950
144, 19.60, 0.00, 21.46, 22.14, 0.000, 0.000, 0.000, 09:17:56.950
145, 16.86, 0.00, 18.10, 17.03, 0.000, 0.000, 0.000, 09:17:56.963
146, 13.75, 0.00, 12.91, 12.37, 0.000, 0.000, 0.000, 09:17:56.964
147, 15.27, 0.00, 19.76, 19.40, 0.000, 0.000, 0.000, 09:17:56.977
148, 20.01, 0.00, 21.46, 17.91, 0.000, 0.000, 0.000, 09:17:56.977
149, 16.69, 0.00, 13.45, 14.83, 0.000, 0.000, 0.000, 09:17:56.977
150, 9.26, 0.00, 11.98, 10.03, 0.000, 0.000, 0.000, 09:17:56.978
151, 13.69, 0.00, 18.70, 16.41, 0.000, 0.000, 0.000, 09:17:56.992
152, 13.55, 0.00, 16.88, 17.01, 0.000, 0.000, 0.000, 09:17:56.992
153, 13.71, 0.00, 17.33, 20.87, 0.000, 0.000, 0.000, 09:17:57.007
154, 11.86, 0.00, 16.76, 11.76, 0.000, 0.000, 0.000, 09:17:57.008
155, 11.76, 0.00, 15.61, 16.59, 0.000, 0.000, 0.000, 09:17:57.009
156, 16.11, 0.00, 18.49, 18.80, 0.000, 0.000, 0.000, 09:17:57.009
157, 14.65, 0.00, 22.32, 16.82, 0.000, 0.000, 0.000, 09:17:57.022
158, 11.84, 0.00, 13.83, 8.56, 0.000, 0.000, 0.000, 09:17:57.022
159, 15.09, 0.00, 16.78, 15.21, 0.000, 0.000, 0.000, 09:17:57.036
160, 17.28, 0.00, 24.48, 23.68, 0.000, 0.000, 0.000, 09:17:57.037
161, 16.36, 0.00, 12.64, 17.76, 0.000, 0.000, 0.000, 09:17:57.037
162, 9.96, 0.00, 10.74, 9.27, 0.000, 0.000, 0.000, 09:17:57.037
163, 13.25, 0.00, 16.16, 14.46, 0.000, 0.000, 0.000, 09:17:57.052
164, 16.84, 0.00, 18.02, 19.39, 0.000, 0.000, 0.000, 09:17:57.053
165, 12.64, 0.00, 18.16, 19.35, 0.000, 0.000, 0.000, 09:17:57.067
166, 12.93, 0.00, 14.18, 13.65, 0.000, 0.000, 0.000, 09:17:57.067
167, 12.63, 0.00, 13.37, 12.03, 0.000, 0.000, 0.000, 09:17:57.068
168, 16.52, 0.00, 23.10, 20.43, 0.000, 0.000, 0.000, 09:17:57.068
169, 18.58, 0.00, 22.85, 17.54, 0.000, 0.000, 0.000, 09:17:57.082
170, 13.06, 0.00, 13.82, 10.12, 0.000, 0.000, 0.000, 09:17:57.082
171, 10.50, 0.00, 17.78, 11.20, 0.000, 0.000, 0.000, 09:17:57.097
172, 16.03, 0.00, 19.83, 17.63, 0.000, 0.000, 0.000, 09:17:57.098
173, 17.13, 0.00, 11.85, 17.22, 0.000, 0.000, 0.000, 09:17:57.098
174, 13.37, 0.00, 14.29, 11.55, 0.000, 0.000, 0.000, 09:17:57.098
175, 16.18, 0.00, 14.81, 13.52, 0.000, 0.000, 0.000, 09:17:57.112
176, 16.30, 0.00, 17.62, 12.25, 0.000, 0.000, 0.000, 09:17:57.113
177, 17.53, 0.00, 22.19, 19.70, 0.000, 0.000, 0.000, 09:17:57.127
178, 11.89, 0.00, 16.39, 14.52, 0.000, 0.000, 0.000, 09:17:57.127
179, 12.41, 0.00, 15.45, 16.32, 0.000, 0.000, 0.000, 09:17:57.129
180, 18.77, 0.00, 19.95, 15.92, 0.000, 0.000, 0.000, 09:17:57.130
181, 14.43, 0.00, 19.30, 18.96, 0.000, 0.000, 0.000, 09:17:57.142
182, 8.01, 0.00, 10.46, 11.74, 0.000, 0.000, 0.000, 09:17:57.142
183, 15.19, 0.00, 16.74, 18.57, 0.000, 0.000, 0.000, 09:17:57.157
184, 16.10, 0.00, 22.43, 17.84, 0.000, 0.000, 0.000, 09:17:57.157
185, 18.32, 0.00, 18.23, 10.94, 0.000, 0.000, 0.000, 09:17:57.160
186, 10.43, 0.00, 15.60, 15.46, 0.000, 0.000, 0.000, 09:17:57.161
187, 15.49, 0.00, 19.31, 19.33, 0.000, 0.000, 0.000, 09:17:57.174
188, 18.22, 0.00, 18.78, 16.97, 0.000, 0.000, 0.000, 09:17:57.175
189, 15.54, 0.00, 21.82, 17.56, 0.000, 0.000, 0.000, 09:17:57.187
190, 15.72, 0.00, 12.50, 15.40, 0.000, 0.000, 0.000, 09:17:57.187
191, 11.26, 0.00, 14.59, 14.81, 0.000, 0.000, 0.000, 09:17:57.188
192, 18.20, 0.00, 23.83, 19.43, 0.000, 0.000, 0.000, 09:17:57.188
193, 17.79, 0.00, 22.20, 20.32, 0.000, 0.000, 0.000, 09:17:57.201
194, 12.75, 0.00, 12.75, 10.19, 0.000, 0.000, 0.000, 09:17:57.202
195, 9.96, 0.00, 17.21, 14.74, 0.000, 0.000, 0.000, 09:17:57.217
196, 18.20, 0.00, 23.44, 25.05, 0.000, 0.000, 0.000, 09:17:57.221
197, 18.76, 0.00, 13.79, 15.79, 0.000, 0.000, 0.000, 09:17:57.222
198, 10.53, 0.00, 12.65, 12.93, 0.000, 0.000, 0.000, 09:17:57.222
199, 15.61, 0.00, 15.84, 15.91, 0.000, 0.000, 0.000, 09:17:57.232
200, 16.63, 0.00, 17.30, 17.86, 0.000, 0.000, 0.000, 09:17:57.233
0, 17.67, 0.00, 19.97, 21.77, 0.000, 0.000, 0.000, 09:17:57.233
1, 8.71, 0.00, 16.39, 11.62, 0.000, 0.000, 0.000, 09:17:57.248
2, 10.07, 0.00, 13.62, 11.67, 0.000, 0.000, 0.000, 09:17:57.248
3, 16.49, 0.00, 24.05, 19.58, 0.000, 0.000, 0.000, 09:17:57.263
4, 13.77, 0.00, 17.51, 13.48, 0.000, 0.000, 0.000, 09:17:57.264
5, 8.62, 0.00, 14.48, 11.04, 0.000, 0.000, 0.000, 09:17:57.264
6, 13.43, 0.00, 17.46, 17.45, 0.000, 0.000, 0.000, 09:17:57.264
7, 19.99, 0.00, 19.24, 21.98, 0.000, 0.000, 0.000, 09:17:57.280
8, 15.45, 0.00, 17.49, 14.98, 0.000, 0.000, 0.000, 09:17:57.280
9, 10.94, 0.00, 12.31, 10.28, 0.000, 0.000, 0.000, 09:17:57.294
10, 13.14, 0.00, 17.31, 10.76, 0.000, 0.000, 0.000, 09:17:57.294
11, 15.02, 0.00, 15.40, 15.26, 0.000, 0.000, 0.000, 09:17:57.296
12, 18.26, 0.00, 21.03, 18.75, 0.000, 0.000, 0.000, 09:17:57.296
13, 12.29, 0.00, 13.88, 15.60, 0.000, 0.000, 0.000, 09:17:57.308
14, 14.00, 0.00, 9.90, 13.06, 0.000, 0.000, 0.000, 09:17:57.308
15, 19.42, 0.00, 24.58, 24.93, 0.000, 0.000, 0.000, 09:17:57.322
16, 15.64, 0.00, 19.43, 15.24, 0.000, 0.000, 0.000, 09:17:57.322
17, 9.79, 0.00, 11.21, 10.18, 0.000, 0.000, 0.000, 09:17:57.322
18, 14.17, 0.00, 18.98, 20.53, 0.000, 0.000, 0.000, 09:17:57.323
19, 16.46, 0.00, 21.73, 19.66, 0.000, 0.000, 0.000, 09:17:57.337
20, 14.46, 0.00, 16.23, 13.98, 0.000, 0.000, 0.000, 09:17:57.337
21, 11.32, 0.00, 14.43, 13.22, 0.000, 0.000, 0.000, 09:17:57.352
22, 13.48, 0.00, 16.65, 16.89, 0.000, 0.000, 0.000, 09:17:57.352
23, 16.02, 0.00, 13.64, 15.47, 0.000, 0.000, 0.000, 09:17:57.352
24, 17.15, 0.00, 16.99, 16.90, 0.000, 0.000, 0.000, 09:17:57.352
25, 9.39, 0.00, 13.91, 10.80, 0.000, 0.000, 0.000, 09:17:57.367
26, 16.63, 0.00, 16.61, 13.84, 0.000, 0.000, 0.000, 09:17:57.367
27, 16.67, 0.00, 21.50, 21.55, 0.000, 0.000, 0.000, 09:17:57.382
28, 15.05, 0.00, 19.35, 14.46, 0.000, 0.000, 0.000, 09:17:57.382
29, 10.79, 0.00, 10.96, 13.21, 0.000, 0.000, 0.000, 09:17:57.382
30, 13.94, 0.00, 17.28, 14.77, 0.000, 0.000, 0.000, 09:17:57.382
31, 19.03, 0.00, 21.76, 22.54, 0.000, 0.000, 0.000, 09:17:57.397
32, 13.09, 0.00, 15.33, 12.25, 0.000, 0.000, 0.000, 09:17:57.397
33, 10.86, 0.00, 14.42, 13.62, 0.000, 0.000, 0.000, 09:17:57.412
34, 16.84, 0.00, 17.59, 16.85, 0.000, 0.000, 0.000, 09:17:57.412
35, 18.29, 0.00, 18.53, 14.45, 0.000, 0.000, 0.000, 09:17:57.412
36, 15.81, 0.00, 20.18, 21.56, 0.000, 0.000, 0.000, 09:17:57.412
37, 11.93, 0.00, 19.66, 20.57, 0.000, 0.000, 0.000, 09:17:57.428
38, 12.83, 0.00, 15.34, 12.18, 0.000, 0.000, 0.000, 09:17:57.428
39, 18.98, 0.00, 19.48, 20.58, 0.000, 0.000, 0.000, 09:17:57.442
40, 16.49, 0.00, 17.72, 12.56, 0.000, 0.000, 0.000, 09:17:57.442
41, 15.98, 0.00, 13.49, 9.78, 0.000, 0.000, 0.000, 09:17:57.442
42, 16.45, 0.00, 18.63, 17.66, 0.000, 0.000, 0.000, 09:17:57.443
43, 15.83, 0.00, 20.12, 21.05, 0.000, 0.000, 0.000, 09:17:57.459
44, 15.09, 0.00, 19.01, 12.72, 0.000, 0.000, 0.000, 09:17:57.459
45, 10.69, 0.00, 15.57, 17.51, 0.000, 0.000, 0.000, 09:17:57.472
46, 13.36, 0.00, 16.50, 16.56, 0.000, 0.000, 0.000, 09:17:57.472
47, 16.91, 0.00, 19.09, 18.51, 0.000, 0.000, 0.000, 09:17:57.472
48, 17.66, 0.00, 16.46, 18.70, 0.000, 0.000, 0.000, 09:17:57.473
49, 14.14, 0.00, 16.05, 12.59, 0.000, 0.000, 0.000, 09:17:57.486
50, 12.57, 0.00, 14.75, 11.35, 0.000, 0.000, 0.000, 09:17:57.486
51, 18.57, 0.00, 22.61, 19.55, 0.000, 0.000, 0.000, 09:17:57.501
52, 14.86, 0.00, 19.01, 17.96, 0.000, 0.000, 0.000, 09:17:57.501
53, 16.12, 0.00, 12.55, 12.71, 0.000, 0.000, 0.000, 09:17:57.502
54, 11.56, 0.00, 16.84, 17.06, 0.000, 0.000, 0.000, 09:17:57.502
55, 20.05, 0.00, 21.21, 19.04, 0.000, 0.000, 0.000, 09:17:57.516
56, 14.61, 0.00, 19.33, 13.96, 0.000, 0.000, 0.000, 09:17:57.516
57, 14.30, 0.00, 16.65, 14.26, 0.000, 0.000, 0.000, 09:17:57.531
58, 13.51, 0.00, 17.70, 18.99, 0.000, 0.000, 0.000, 09:17:57.531
59, 17.94, 0.00, 18.74, 21.75, 0.000, 0.000, 0.000, 09:17:57.532
60, 12.73, 0.00, 17.40, 15.76, 0.000, 0.000, 0.000, 09:17:57.532
61, 14.15, 0.00, 15.12, 11.60, 0.000, 0.000, 0.000, 09:17:57.546
62, 10.87, 0.00, 14.35, 7.97, 0.000, 0.000, 0.000, 09:17:57.546
63, 14.82, 0.00, 23.24, 19.86, 0.000, 0.000, 0.000, 09:17:57.563
64, 13.69, 0.00, 17.31, 11.79, 0.000, 0.000, 0.000, 09:17:57.563
65, 12.88, 0.00, 14.57, 13.60, 0.000, 0.000, 0.000, 09:17:57.563
66, 13.53, 0.00, 17.86, 17.01, 0.000, 0.000, 0.000, 09:17:57.563
67, 15.47, 0.00, 20.02, 23.33, 0.000, 0.000, 0.000, 09:17:57.578
68, 17.27, 0.00, 16.34, 11.93, 0.000, 0.000, 0.000, 09:17:57.579
69, 12.69, 0.00, 13.69, 13.04, 0.000, 0.000, 0.000, 09:17:57.591
70, 13.10, 0.00, 17.33, 16.60, 0.000, 0.000, 0.000, 09:17:57.591
71, 15.52, 0.00, 21.48, 21.10, 0.000, 0.000, 0.000, 09:17:57.591
72, 10.93, 0.00, 13.89, 13.13, 0.000, 0.000, 0.000, 09:17:57.592
73, 10.12, 0.00, 11.84, 9.79, 0.000, 0.000, 0.000, 09:17:57.607
74, 15.70, 0.00, 13.01, 13.39, 0.000, 0.000, 0.000, 09:17:57.607
75, 19.60, 0.00, 24.76, 20.72, 0.000, 0.000, 0.000, 09:17:57.622
76, 16.09, 0.00, 14.62, 17.07, 0.000, 0.000, 0.000, 09:17:57.622
77, 11.47, 0.00, 10.73, 7.06, 0.000, 0.000, 0.000, 09:17:57.622
78, 17.31, 0.00, 19.62, 17.28, 0.000, 0.000, 0.000, 09:17:57.623
79, 19.79, 0.00, 22.94, 24.71, 0.000, 0.000, 0.000, 09:17:57.637
80, 14.97, 0.00, 15.26, 13.28, 0.000, 0.000, 0.000, 09:17:57.637
81, 9.34, 0.00, 13.30, 16.61, 0.000, 0.000, 0.000, 09:17:57.652
82, 14.02, 0.00, 20.16, 18.75, 0.000, 0.000, 0.000, 09:17:57.652
83, 16.34, 0.00, 18.30, 13.19, 0.000, 0.000, 0.000, 09:17:57.661
84, 15.26, 0.00, 16.52, 16.38, 0.000, 0.000, 0.000, 09:17:57.662
85, 12.43, 0.00, 15.31, 12.48, 0.000, 0.000, 0.000, 09:17:57.667
86, 12.62, 0.00, 16.17, 14.75, 0.000, 0.000, 0.000, 09:17:57.667
87, 17.59, 0.00, 24.31, 20.63, 0.000, 0.000, 0.000, 09:17:57.682
88, 13.52, 0.00, 19.07, 19.08, 0.000, 0.000, 0.000, 09:17:57.682
89, 13.58, 0.00, 14.25, 8.55, 0.000, 0.000, 0.000, 09:17:57.683
90, 13.62, 0.00, 15.73, 13.90, 0.000, 0.000, 0.000, 09:17:57.683
91, 16.99, 0.00, 15.99, 21.22, 0.000, 0.000, 0.000, 09:17:57.697
92, 12.36, 0.00, 14.04, 10.98, 0.000, 0.000, 0.000, 09:17:57.697
93, 12.00, 0.00, 16.28, 13.70, 0.000, 0.000, 0.000, 09:17:57.713
94, 15.08, 0.00, 20.95, 17.17, 0.000, 0.000, 0.000, 09:17:57.714
95, 16.01, 0.00, 19.31, 11.25, 0.000, 0.000, 0.000, 09:17:57.714
96, 14.70, 0.00, 16.20, 17.88, 0.000, 0.000, 0.000, 09:17:57.714
97, 10.14, 0.00, 13.22, 13.64, 0.000, 0.000, 0.000, 09:17:57.727
98, 13.14, 0.00, 14.47, 10.81, 0.000, 0.000, 0.000, 09:17:57.728
99, 14.28, 0.00, 22.68, 20.90, 0.000, 0.000, 0.000, 09:17:57.742
100, 15.50, 0.00, 17.09, 17.10, 0.000, 0.000, 0.000, 09:17:57.743
101, 10.05, 0.00, 10.25, 9.13, 0.000, 0.000, 0.000, 09:17:57.743
102, 17.08, 0.00, 18.95, 18.39, 0.000, 0.000, 0.000, 09:17:57.743
103, 18.55, 0.00, 20.06, 22.00, 0.000, 0.000, 0.000, 09:17:57.758
104, 13.91, 0.00, 12.83, 10.76, 0.000, 0.000, 0.000, 09:17:57.758
105, 11.08, 0.00, 13.63, 14.39, 0.000, 0.000, 0.000, 09:17:57.772
106, 14.14, 0.00, 17.99, 20.33, 0.000, 0.000, 0.000, 09:17:57.772
107, 18.60, 0.00, 18.57, 20.33, 0.000, 0.000, 0.000, 09:17:57.773
108, 15.71, 0.00, 18.37, 19.63, 0.000, 0.000, 0.000, 09:17:57.773
109, 10.57, 0.00, 11.71, 11.23, 0.000, 0.000, 0.000, 09:17:57.788
110, 16.37, 0.00, 16.00, 16.98, 0.000, 0.000, 0.000, 09:17:57.789
111, 19.77, 0.00, 24.35, 24.92, 0.000, 0.000, 0.000, 09:17:57.802
112, 17.05, 0.00, 20.43, 15.90, 0.000, 0.000, 0.000, 09:17:57.802
113, 7.23, 0.00, 12.52, 9.28, 0.000, 0.000, 0.000, 09:17:57.803
114, 14.35, 0.00, 20.14, 10.68, 0.000, 0.000, 0.000, 09:17:57.803
115, 16.72, 0.00, 17.27, 17.82, 0.000, 0.000, 0.000, 09:17:57.817
116, 12.37, 0.00, 10.28, 13.64, 0.000, 0.000, 0.000, 09:17:57.817
117, 19.48, 0.00, 17.07, 13.66, 0.000, 0.000, 0.000, 09:17:57.831
118, 15.49, 0.00, 18.51, 17.86, 0.000, 0.000, 0.000, 09:17:57.832
119, 13.03, 0.00, 19.76, 17.74, 0.000, 0.000, 0.000, 09:17:57.832
120, 9.72, 0.00, 18.45, 16.32, 0.000, 0.000, 0.000, 09:17:57.832
121, 9.72, 0.00, 12.50, 6.17, 0.000, 0.000, 0.000, 09:17:57.846
122, 14.20, 0.00, 11.39, 13.04, 0.000, 0.000, 0.000, 09:17:57.847
123, 19.13, 0.00, 24.96, 22.68, 0.000, 0.000, 0.000, 09:17:57.861
124, 17.78, 0.00, 22.13, 17.06, 0.000, 0.000, 0.000, 09:17:57.861
125, 12.85, 0.00, 12.99, 9.30, 0.000, 0.000, 0.000, 09:17:57.862
126, 15.47, 0.00, 19.04, 17.14, 0.000, 0.000, 0.000, 09:17:57.862
127, 14.70, 0.00, 16.59, 21.52, 0.000, 0.000, 0.000, 09:17:57.878
128, 13.58, 0.00, 12.77, 13.16, 0.000, 0.000, 0.000, 09:17:57.878
129, 13.46, 0.00, 13.00, 17.94, 0.000, 0.000, 0.000, 09:17:57.892
130, 14.80, 0.00, 18.16, 15.77, 0.000, 0.000, 0.000, 09:17:57.892
131, 15.04, 0.00, 16.24, 17.07, 0.000, 0.000, 0.000, 09:17:57.892
132, 15.25, 0.00, 19.24, 14.07, 0.000, 0.000, 0.000, 09:17:57.892
133, 14.74, 0.00, 13.86, 14.22, 0.000, 0.000, 0.000, 09:17:57.907
134, 12.75, 0.00, 16.23, 13.69, 0.000, 0.000, 0.000, 09:17:57.908
135, 20.02, 0.00, 20.47, 23.04, 0.000, 0.000, 0.000, 09:17:57.921
136, 14.03, 0.00, 19.06, 16.84, 0.000, 0.000, 0.000, 09:17:57.921
137, 8.91, 0.00, 13.06, 7.67, 0.000, 0.000, 0.000, 09:17:57.922
138, 17.71, 0.00, 17.18, 15.84, 0.000, 0.000, 0.000, 09:17:57.922
139, 18.72, 0.00, 23.31, 18.79, 0.000, 0.000, 0.000, 09:17:57.936
140, 13.33, 0.00, 17.78, 14.24, 0.000, 0.000, 0.000, 09:17:57.937
141, 15.59, 0.00, 15.90, 17.98, 0.000, 0.000, 0.000, 09:17:57.951
142, 18.03, 0.00, 19.96, 20.35, 0.000, 0.000, 0.000, 09:17:57.951
143, 16.27, 0.00, 19.04, 16.68, 0.000, 0.000, 0.000, 09:17:57.960
144, 13.65, 0.00, 16.98, 16.52, 0.000, 0.000, 0.000, 09:17:57.960
145, 12.82, 0.00, 16.16, 12.77, 0.000, 0.000, 0.000, 09:17:57.967
146, 14.82, 0.00, 16.16, 15.05, 0.000, 0.000, 0.000, 09:17:57.967
147, 18.36, 0.00, 24.31, 23.12, 0.000, 0.000, 0.000, 09:17:57.982
148, 15.40, 0.00, 17.45, 14.67, 0.000, 0.000, 0.000, 09:17:57.982
149, 11.83, 0.00, 12.53, 11.07, 0.000, 0.000, 0.000, 09:17:57.983
150, 14.95, 0.00, 18.57, 18.32, 0.000, 0.000, 0.000, 09:17:57.983
151, 17.27, 0.00, 20.95, 18.17, 0.000, 0.000, 0.000, 09:17:57.998
152, 10.34, 0.00, 12.31, 9.03, 0.000, 0.000, 0.000, 09:17:57.998
153, 15.03, 0.00, 18.45, 13.15, 0.000, 0.000, 0.000, 09:17:58.014
154, 14.35, 0.00, 20.94, 18.08, 0.000, 0.000, 0.000, 09:17:58.014
155, 14.29, 0.00, 17.99, 19.10, 0.000, 0.000, 0.000, 09:17:58.015
156, 11.30, 0.00, 15.63, 16.28, 0.000, 0.000, 0.000, 09:17:58.015
157, 12.25, 0.00, 13.56, 14.40, 0.000, 0.000, 0.000, 09:17:58.027
158, 15.05, 0.00, 16.20, 16.98, 0.000, 0.000, 0.000, 09:17:58.028
159, 17.44, 0.00, 24.31, 21.93, 0.000, 0.000, 0.000, 09:17:58.042
160, 13.10, 0.00, 21.07, 14.98, 0.000, 0.000, 0.000, 09:17:58.043
161, 12.96, 0.00, 11.09, 8.34, 0.000, 0.000, 0.000, 09:17:58.043
162, 17.35, 0.00, 20.01, 21.55, 0.000, 0.000, 0.000, 09:17:58.043
163, 15.88, 0.00, 22.79, 19.31, 0.000, 0.000, 0.000, 09:17:58.058
164, 12.14, 0.00, 11.16, 11.79, 0.000, 0.000, 0.000, 09:17:58.059
165, 10.86, 0.00, 15.28, 13.83, 0.000, 0.000, 0.000, 09:17:58.072
166, 16.67, 0.00, 16.09, 16.88, 0.000, 0.000, 0.000, 09:17:58.072
167, 16.48, 0.00, 19.88, 18.81, 0.000, 0.000, 0.000, 09:17:58.075
168, 15.89, 0.00, 20.16, 16.47, 0.000, 0.000, 0.000, 09:17:58.075
169, 9.80, 0.00, 13.09, 10.32, 0.000, 0.000, 0.000, 09:17:58.087
170, 10.62, 0.00, 17.84, 12.62, 0.000, 0.000, 0.000, 09:17:58.087
171, 18.20, 0.00, 21.59, 23.49, 0.000, 0.000, 0.000, 09:17:58.102
172, 14.12, 0.00, 18.16, 14.95, 0.000, 0.000, 0.000, 09:17:58.102
173, 9.91, 0.00, 11.14, 9.27, 0.000, 0.000, 0.000, 09:17:58.102
174, 15.14, 0.00, 12.11, 13.37, 0.000, 0.000, 0.000, 09:17:58.102
175, 16.35, 0.00, 21.74, 20.15, 0.000, 0.000, 0.000, 09:17:58.117
176, 12.38, 0.00, 13.12, 12.12, 0.000, 0.000, 0.000, 09:17:58.117
177, 15.95, 0.00, 17.61, 16.02, 0.000, 0.000, 0.000, 09:17:58.132
178, 15.38, 0.00, 19.66, 20.91, 0.000, 0.000, 0.000, 09:17:58.132
179, 17.51, 0.00, 17.89, 17.36, 0.000, 0.000, 0.000, 09:17:58.132
180, 15.97, 0.00, 17.50, 16.15, 0.000, 0.000, 0.000, 09:17:58.132
181, 8.86, 0.00, 12.83, 11.24, 0.000, 0.000, 0.000, 09:17:58.147
182, 13.71, 0.00, 15.82, 12.44, 0.000, 0.000, 0.000, 09:17:58.147
183, 19.64, 0.00, 23.78, 22.53, 0.000, 0.000, 0.000, 09:17:58.162
184, 12.90, 0.00, 15.86, 17.63, 0.000, 0.000, 0.000, 09:17:58.162
185, 9.91, 0.00, 10.21, 9.64, 0.000, 0.000, 0.000, 09:17:58.162
186, 15.15, 0.00, 18.53, 20.58, 0.000, 0.000, 0.000, 09:17:58.162
187, 17.11, 0.00, 22.52, 19.20, 0.000, 0.000, 0.000, 09:17:58.178
188, 10.14, 0.00, 12.46, 14.78, 0.000, 0.000, 0.000, 09:17:58.179
189, 12.83, 0.00, 18.36, 17.28, 0.000, 0.000, 0.000, 09:17:58.192
190, 16.67, 0.00, 19.51, 18.40, 0.000, 0.000, 0.000, 09:17:58.192
191, 19.87, 0.00, 17.59, 22.31, 0.000, 0.000, 0.000, 09:17:58.192
192, 14.85, 0.00, 16.10, 11.48, 0.000, 0.000, 0.000, 09:17:58.192
193, 15.34, 0.00, 17.00, 9.32, 0.000, 0.000, 0.000, 09:17:58.208
194, 14.94, 0.00, 17.24, 14.40, 0.000, 0.000, 0.000, 09:17:58.208
195, 20.12, 0.00, 22.73, 23.46, 0.000, 0.000, 0.000, 09:17:58.221
196, 15.84, 0.00, 16.16, 12.93, 0.000, 0.000, 0.000, 09:17:58.222
197, 12.13, 0.00, 11.42, 9.94, 0.000, 0.000, 0.000, 09:17:58.229
198, 18.97, 0.00, 21.36, 17.24, 0.000, 0.000, 0.000, 09:17:58.229
199, 14.76, 0.00, 19.16, 23.98, 0.000, 0.000, 0.000, 09:17:58.236
200, 14.90, 0.00, 13.37, 13.08, 0.000, 0.000, 0.000, 09:17:58.236
0, 13.28, 0.00, 14.68, 13.44, 0.000, 0.000, 0.000, 09:17:58.237
1, 16.25, 0.00, 18.75, 16.35, 0.000, 0.000, 0.000, 09:17:58.251
2, 13.95, 0.00, 19.13, 14.28, 0.000, 0.000, 0.000, 09:17:58.251
3, 11.35, 0.00, 18.04, 17.59, 0.000, 0.000, 0.000, 09:17:58.266
4, 13.94, 0.00, 13.59, 14.81, 0.000, 0.000, 0.000, 09:17:58.266
5, 14.58, 0.00, 18.43, 14.99, 0.000, 0.000, 0.000, 09:17:58.267
6, 18.97, 0.00, 20.04, 18.25, 0.000, 0.000, 0.000, 09:17:58.267
7, 14.60, 0.00, 15.90, 16.45, 0.000, 0.000, 0.000, 09:17:58.281
8, 11.39, 0.00, 13.63, 9.99, 0.000, 0.000, 0.000, 09:17:58.281
9, 11.74, 0.00, 18.13, 17.75, 0.000, 0.000, 0.000, 09:17:58.297
10, 16.98, 0.00, 18.66, 22.52, 0.000, 0.000, 0.000, 09:17:58.297
11, 13.17, 0.00, 14.54, 14.95, 0.000, 0.000, 0.000, 09:17:58.297
12, 13.18, 0.00, 14.70, 18.85, 0.000, 0.000, 0.000, 09:17:58.297
13, 18.02, 0.00, 18.65, 17.60, 0.000, 0.000, 0.000, 09:17:58.311
14, 15.77, 0.00, 19.14, 15.15, 0.000, 0.000, 0.000, 09:17:58.311
15, 13.08, 0.00, 17.89, 13.00, 0.000, 0.000, 0.000, 09:17:58.327
16, 14.53, 0.00, 17.37, 13.88, 0.000, 0.000, 0.000, 09:17:58.327
17, 12.42, 0.00, 18.56, 17.51, 0.000, 0.000, 0.000, 09:17:58.327
18, 18.82, 0.00, 24.45, 22.53, 0.000, 0.000, 0.000, 09:17:58.327
19, 12.84, 0.00, 20.52, 17.15, 0.000, 0.000, 0.000, 09:17:58.341
20, 8.97, 0.00, 9.35, 11.07, 0.000, 0.000, 0.000, 09:17:58.341
21, 14.26, 0.00, 17.32, 17.78, 0.000, 0.000, 0.000, 09:17:58.357
22, 15.57, 0.00, 20.38, 18.55, 0.000, 0.000, 0.000, 09:17:58.358
23, 13.88, 0.00, 12.42, 8.87, 0.000, 0.000, 0.000, 09:17:58.358
24, 14.40, 0.00, 11.68, 11.87, 0.000, 0.000, 0.000, 09:17:58.358
25, 16.05, 0.00, 18.57, 20.58, 0.000, 0.000, 0.000, 09:17:58.372
26, 19.28, 0.00, 18.24, 18.05, 0.000, 0.000, 0.000, 09:17:58.372
27, 14.80, 0.00, 19.71, 15.06, 0.000, 0.000, 0.000, 09:17:58.388
28, 12.72, 0.00, 15.05, 19.49, 0.000, 0.000, 0.000, 09:17:58.388
29, 12.85, 0.00, 18.43, 17.54, 0.000, 0.000, 0.000, 09:17:58.389
30, 17.73, 0.00, 20.52, 20.28, 0.000, 0.000, 0.000, 09:17:58.389
31, 13.19, 0.00, 15.54, 16.41, 0.000, 0.000, 0.000, 09:17:58.403
32, 10.87, 0.00, 3.87, 6.63, 0.000, 0.000, 0.000, 09:17:58.403
33, 13.25, 0.00, 17.20, 15.50, 0.000, 0.000, 0.000, 09:17:58.417
34, 20.91, 0.00, 23.02, 18.31, 0.000, 0.000, 0.000, 09:17:58.418
35, 14.70, 0.00, 14.30, 11.43, 0.000, 0.000, 0.000, 09:17:58.418
36, 13.12, 0.00, 17.73, 12.11, 0.000, 0.000, 0.000, 09:17:58.418
37, 12.26, 0.00, 14.56, 15.59, 0.000, 0.000, 0.000, 09:17:58.432
38, 13.74, 0.00, 19.25, 16.87, 0.000, 0.000, 0.000, 09:17:58.433
39, 18.64, 0.00, 16.75, 16.86, 0.000, 0.000, 0.000, 09:17:58.447
40, 9.03, 0.00, 16.24, 12.68, 0.000, 0.000, 0.000, 09:17:58.448
41, 13.31, 0.00, 15.56, 14.46, 0.000, 0.000, 0.000, 09:17:58.448
42, 15.15, 0.00, 22.42, 19.63, 0.000, 0.000, 0.000, 09:17:58.448
43, 14.74, 0.00, 16.82, 17.64, 0.000, 0.000, 0.000, 09:17:58.463
44, 13.58, 0.00, 13.30, 10.23, 0.000, 0.000, 0.000, 09:17:58.463
45, 18.40, 0.00, 20.72, 24.17, 0.000, 0.000, 0.000, 09:17:58.480
46, 18.93, 0.00, 20.55, 18.56, 0.000, 0.000, 0.000, 09:17:58.480
47, 12.28, 0.00, 15.83, 9.72, 0.000, 0.000, 0.000, 09:17:58.481
48, 15.20, 0.00, 17.51, 22.03, 0.000, 0.000, 0.000, 09:17:58.481
49, 14.41, 0.00, 21.61, 17.63, 0.000, 0.000, 0.000, 09:17:58.492
50, 13.59, 0.00, 16.96, 16.93, 0.000, 0.000, 0.000, 09:17:58.492
51, 15.07, 0.00, 19.25, 17.73, 0.000, 0.000, 0.000, 09:17:58.507
52, 14.89, 0.00, 15.73, 10.81, 0.000, 0.000, 0.000, 09:17:58.508
53, 15.45, 0.00, 14.75, 15.39, 0.000, 0.000, 0.000, 09:17:58.508
54, 15.08, 0.00, 22.85, 20.00, 0.000, 0.000, 0.000, 09:17:58.509
55, 14.52, 0.00, 16.98, 15.54, 0.000, 0.000, 0.000, 09:17:58.529
56, 11.21, 0.00, 12.45, 7.13, 0.000, 0.000, 0.000, 09:17:58.530
57, 18.39, 0.00, 20.32, 14.72, 0.000, 0.000, 0.000, 09:17:58.537
58, 15.69, 0.00, 19.79, 13.89, 0.000, 0.000, 0.000, 09:17:58.537
59, 14.45, 0.00, 13.24, 10.71, 0.000, 0.000, 0.000, 09:17:58.537
60, 11.19, 0.00, 15.92, 12.43, 0.000, 0.000, 0.000, 09:17:58.538
61, 16.12, 0.00, 21.38, 22.67, 0.000, 0.000, 0.000, 09:17:58.552
62, 12.60, 0.00, 16.03, 16.09, 0.000, 0.000, 0.000, 09:17:58.552
63, 15.76, 0.00, 15.47, 18.29, 0.000, 0.000, 0.000, 09:17:58.567
64, 10.98, 0.00, 13.43, 8.29, 0.000, 0.000, 0.000, 09:17:58.567
65, 15.21, 0.00, 18.84, 16.31, 0.000, 0.000, 0.000, 09:17:58.568
66, 14.40, 0.00, 20.84, 23.00, 0.000, 0.000, 0.000, 09:17:58.568
67, 13.07, 0.00, 17.60, 14.49, 0.000, 0.000, 0.000, 09:17:58.582
68, 11.98, 0.00, 14.91, 13.97, 0.000, 0.000, 0.000, 09:17:58.582
69, 20.36, 0.00, 20.81, 19.95, 0.000, 0.000, 0.000, 09:17:58.597
70, 17.17, 0.00, 19.89, 20.26, 0.000, 0.000, 0.000, 09:17:58.597
71, 13.63, 0.00, 10.69, 9.49, 0.000, 0.000, 0.000, 09:17:58.598
72, 10.92, 0.00, 13.34, 15.92, 0.000, 0.000, 0.000, 09:17:58.598
73, 15.97, 0.00, 19.41, 19.52, 0.000, 0.000, 0.000, 09:17:58.618
74, 19.05, 0.00, 21.93, 19.13, 0.000, 0.000, 0.000, 09:17:58.619
75, 15.17, 0.00, 16.38, 17.85, 0.000, 0.000, 0.000, 09:17:58.628
76, 12.02, 0.00, 17.24, 12.58, 0.000, 0.000, 0.000, 09:17:58.628
77, 15.00, 0.00, 18.06, 12.31, 0.000, 0.000, 0.000, 09:17:58.629
78, 16.95, 0.00, 22.84, 16.77, 0.000, 0.000, 0.000, 09:17:58.629
79, 16.04, 0.00, 16.05, 13.23, 0.000, 0.000, 0.000, 09:17:58.644
80, 9.64, 0.00, 10.96, 13.06, 0.000, 0.000, 0.000, 09:17:58.645
81, 16.52, 0.00, 20.72, 24.85, 0.000, 0.000, 0.000, 09:17:58.657
82, 14.67, 0.00, 18.56, 20.84, 0.000, 0.000, 0.000, 09:17:58.658
83, 8.88, 0.00, 12.61, 10.90, 0.000, 0.000, 0.000, 09:17:58.659
84, 9.48, 0.00, 12.79, 13.77, 0.000, 0.000, 0.000, 09:17:58.659
85, 16.16, 0.00, 17.67, 16.41, 0.000, 0.000, 0.000, 09:17:58.672
86, 13.51, 0.00, 19.14, 10.40, 0.000, 0.000, 0.000, 09:17:58.672
87, 13.29, 0.00, 17.08, 15.97, 0.000, 0.000, 0.000, 09:17:58.687
88, 12.08, 0.00, 14.87, 13.37, 0.000, 0.000, 0.000, 09:17:58.688
89, 15.39, 0.00, 18.82, 14.37, 0.000, 0.000, 0.000, 09:17:58.688
90, 17.43, 0.00, 22.61, 18.87, 0.000, 0.000, 0.000, 09:17:58.688
91, 16.73, 0.00, 16.39, 13.29, 0.000, 0.000, 0.000, 09:17:58.702
92, 11.21, 0.00, 13.73, 11.70, 0.000, 0.000, 0.000, 09:17:58.702
93, 19.47, 0.00, 17.83, 22.98, 0.000, 0.000, 0.000, 09:17:58.717
94, 19.78, 0.00, 22.73, 22.73, 0.000, 0.000, 0.000, 09:17:58.717
95, 13.86, 0.00, 10.33, 11.89, 0.000, 0.000, 0.000, 09:17:58.717
96, 14.42, 0.00, 16.12, 17.88, 0.000, 0.000, 0.000, 09:17:58.718
97, 17.29, 0.00, 21.00, 22.31, 0.000, 0.000, 0.000, 09:17:58.732
98, 14.98, 0.00, 17.24, 15.77, 0.000, 0.000, 0.000, 09:17:58.732
99, 12.06, 0.00, 16.68, 13.94, 0.000, 0.000, 0.000, 09:17:58.748
100, 11.02, 0.00, 14.99, 12.59, 0.000, 0.000, 0.000, 09:17:58.748
101, 16.82, 0.00, 17.81, 16.39, 0.000, 0.000, 0.000, 09:17:58.749
102, 15.65, 0.00, 17.99, 19.37, 0.000, 0.000, 0.000, 09:17:58.749
103, 16.15, 0.00, 15.05, 16.40, 0.000, 0.000, 0.000, 09:17:58.762
104, 12.68, 0.00, 10.41, 6.65, 0.000, 0.000, 0.000, 09:17:58.763
105, 20.09, 0.00, 22.32, 19.85, 0.000, 0.000, 0.000, 09:17:58.778
106, 16.20, 0.00, 17.31, 19.37, 0.000, 0.000, 0.000, 09:17:58.779
107, 7.78, 0.00, 14.77, 13.24, 0.000, 0.000, 0.000, 09:17:58.779
108, 10.77, 0.00, 13.59, 15.93, 0.000, 0.000, 0.000, 09:17:58.779
109, 17.40, 0.00, 22.01, 19.93, 0.000, 0.000, 0.000, 09:17:58.793
110, 17.27, 0.00, 18.97, 16.52, 0.000, 0.000, 0.000, 09:17:58.793
111, 13.15, 0.00, 19.50, 17.55, 0.000, 0.000, 0.000, 09:17:58.807
112, 10.08, 0.00, 15.10, 9.06, 0.000, 0.000, 0.000, 09:17:58.808
113, 14.69, 0.00, 15.23, 15.34, 0.000, 0.000, 0.000, 09:17:58.810
114, 18.48, 0.00, 23.52, 20.07, 0.000, 0.000, 0.000, 09:17:58.810
115, 12.50, 0.00, 17.16, 11.41, 0.000, 0.000, 0.000, 09:17:58.822
116, 10.17, 0.00, 9.17, 8.00, 0.000, 0.000, 0.000, 09:17:58.823
117, 18.65, 0.00, 23.88, 23.74, 0.000, 0.000, 0.000, 09:17:58.837
118, 10.61, 0.00, 19.31, 20.25, 0.000, 0.000, 0.000, 09:17:58.837
119, 12.87, 0.00, 13.94, 13.21, 0.000, 0.000, 0.000, 09:17:58.838
120, 14.02, 0.00, 11.80, 11.77, 0.000, 0.000, 0.000, 09:17:58.838
121, 19.04, 0.00, 21.89, 18.03, 0.000, 0.000, 0.000, 09:17:58.852
122, 13.74, 0.00, 18.39, 14.03, 0.000, 0.000, 0.000, 09:17:58.852
123, 12.14, 0.00, 15.92, 15.95, 0.000, 0.000, 0.000, 09:17:58.867
124, 14.99, 0.00, 14.22, 9.65, 0.000, 0.000, 0.000, 09:17:58.867
125, 16.37, 0.00, 15.72, 16.40, 0.000, 0.000, 0.000, 09:17:58.867
126, 15.17, 0.00, 18.85, 17.57, 0.000, 0.000, 0.000, 09:17:58.867
127, 12.17, 0.00, 17.13, 18.18, 0.000, 0.000, 0.000, 09:17:58.882
128, 11.77, 0.00, 10.51, 10.06, 0.000, 0.000, 0.000, 09:17:58.882
129, 15.69, 0.00, 18.90, 19.48, 0.000, 0.000, 0.000, 09:17:58.897
130, 14.94, 0.00, 21.03, 19.76, 0.000, 0.000, 0.000, 09:17:58.897
131, 15.51, 0.00, 11.48, 13.84, 0.000, 0.000, 0.000, 09:17:58.898
132, 12.75, 0.00, 16.93, 15.12, 0.000, 0.000, 0.000, 09:17:58.898
133, 16.78, 0.00, 22.77, 17.04, 0.000, 0.000, 0.000, 09:17:58.915
134, 16.17, 0.00, 18.49, 16.88, 0.000, 0.000, 0.000, 09:17:58.915
135, 11.73, 0.00, 16.60, 16.20, 0.000, 0.000, 0.000, 09:17:58.928
136, 17.47, 0.00, 15.00, 14.52, 0.000, 0.000, 0.000, 09:17:58.928
137, 20.30, 0.00, 25.05, 21.09, 0.000, 0.000, 0.000, 09:17:58.928
138, 15.41, 0.00, 23.38, 23.01, 0.000, 0.000, 0.000, 09:17:58.928
139, 12.44, 0.00, 13.11, 15.23, 0.000, 0.000, 0.000, 09:17:58.950
140, 13.06, 0.00, 10.41, 12.87, 0.000, 0.000, 0.000, 09:17:58.951
141, 18.29, 0.00, 21.89, 21.05, 0.000, 0.000, 0.000, 09:17:58.957
142, 21.05, 0.00, 24.47, 19.85, 0.000, 0.000, 0.000, 09:17:58.958
143, 9.67, 0.00, 11.17, 14.03, 0.000, 0.000, 0.000, 09:17:58.959
144, 10.41, 0.00, 12.47, 16.50, 0.000, 0.000, 0.000, 09:17:58.959
145, 15.49, 0.00, 22.72, 22.05, 0.000, 0.000, 0.000, 09:17:58.972
146, 16.23, 0.00, 16.11, 15.52, 0.000, 0.000, 0.000, 09:17:58.972
147, 14.77, 0.00, 18.14, 13.52, 0.000, 0.000, 0.000, 09:17:58.987
148, 13.10, 0.00, 15.01, 11.75, 0.000, 0.000, 0.000, 09:17:58.987
149, 9.15, 0.00, 18.67, 13.26, 0.000, 0.000, 0.000, 09:17:58.987
150, 16.34, 0.00, 22.52, 17.91, 0.000, 0.000, 0.000, 09:17:58.988
151, 15.23, 0.00, 16.48, 14.02, 0.000, 0.000, 0.000, 09:17:59.006
152, 11.92, 0.00, 13.49, 11.34, 0.000, 0.000, 0.000, 09:17:59.007
153, 16.03, 0.00, 22.74, 22.51, 0.000, 0.000, 0.000, 09:17:59.019
154, 16.12, 0.00, 15.74, 15.32, 0.000, 0.000, 0.000, 09:17:59.019
155, 7.78, 0.00, 12.76, 5.96, 0.000, 0.000, 0.000, 09:17:59.019
156, 13.21, 0.00, 13.27, 10.96, 0.000, 0.000, 0.000, 09:17:59.020
157, 17.45, 0.00, 19.79, 20.72, 0.000, 0.000, 0.000, 09:17:59.034
158, 19.13, 0.00, 20.08, 18.26, 0.000, 0.000, 0.000, 09:17:59.034
159, 13.66, 0.00, 13.28, 15.09, 0.000, 0.000, 0.000, 09:17:59.046
160, 14.65, 0.00, 12.28, 17.54, 0.000, 0.000, 0.000, 09:17:59.046
161, 14.92, 0.00, 17.50, 16.06, 0.000, 0.000, 0.000, 09:17:59.047
162, 18.96, 0.00, 22.66, 21.23, 0.000, 0.000, 0.000, 09:17:59.047
163, 13.22, 0.00, 16.43, 15.05, 0.000, 0.000, 0.000, 09:17:59.067
164, 15.23, 0.00, 16.20, 14.69, 0.000, 0.000, 0.000, 09:17:59.068
165, 19.88, 0.00, 23.29, 16.47, 0.000, 0.000, 0.000, 09:17:59.076
166, 15.76, 0.00, 22.15, 18.65, 0.000, 0.000, 0.000, 09:17:59.076
167, 12.14, 0.00, 15.50, 8.44, 0.000, 0.000, 0.000, 09:17:59.077
168, 14.91, 0.00, 18.22, 8.67, 0.000, 0.000, 0.000, 09:17:59.077
169, 15.23, 0.00, 19.09, 17.03, 0.000, 0.000, 0.000, 09:17:59.092
170, 14.76, 0.00, 16.56, 18.45, 0.000, 0.000, 0.000, 09:17:59.092
171, 13.22, 0.00, 14.66, 18.27, 0.000, 0.000, 0.000, 09:17:59.107
172, 15.94, 0.00, 13.48, 13.60, 0.000, 0.000, 0.000, 09:17:59.108
173, 15.54, 0.00, 15.61, 18.32, 0.000, 0.000, 0.000, 09:17:59.108
174, 19.04, 0.00, 20.99, 20.78, 0.000, 0.000, 0.000, 09:17:59.108
175, 12.09, 0.00, 13.04, 14.28, 0.000, 0.000, 0.000, 09:17:59.123
176, 14.25, 0.00, 11.05, 8.52, 0.000, 0.000, 0.000, 09:17:59.123
177, 15.83, 0.00, 22.13, 17.91, 0.000, 0.000, 0.000, 09:17:59.137
178, 16.09, 0.00, 18.77, 22.77, 0.000, 0.000, 0.000, 09:17:59.138
179, 10.63, 0.00, 16.41, 9.82, 0.000, 0.000, 0.000, 09:17:59.138
180, 14.45, 0.00, 16.26, 12.07, 0.000, 0.000, 0.000, 09:17:59.138
181, 17.20, 0.00, 19.15, 16.58, 0.000, 0.000, 0.000, 09:17:59.152
182, 12.11, 0.00, 12.12, 15.76, 0.000, 0.000, 0.000, 09:17:59.153
183, 6.23, 0.00, 13.45, 14.42, 0.000, 0.000, 0.000, 09:17:59.167
184, 9.07, 0.00, 19.37, 11.00, 0.000, 0.000, 0.000, 09:17:59.167
185, 16.27, 0.00, 18.01, 17.93, 0.000, 0.000, 0.000, 09:17:59.168
186, 21.78, 0.00, 23.19, 21.35, 0.000, 0.000, 0.000, 09:17:59.168
187, 12.04, 0.00, 18.68, 16.50, 0.000, 0.000, 0.000, 09:17:59.182
188, 9.12, 0.00, 11.75, 11.31, 0.000, 0.000, 0.000, 09:17:59.183
189, 23.23, 0.00, 20.77, 23.19, 0.000, 0.000, 0.000, 09:17:59.198
190, 16.39, 0.00, 17.78, 20.29, 0.000, 0.000, 0.000, 09:17:59.201
191, 14.45, 0.00, 9.96, 8.01, 0.000, 0.000, 0.000, 09:17:59.201
192, 10.26, 0.00, 14.62, 12.90, 0.000, 0.000, 0.000, 09:17:59.202
193, 16.74, 0.00, 20.64, 23.75, 0.000, 0.000, 0.000, 09:17:59.212
194, 19.53, 0.00, 19.08, 15.62, 0.000, 0.000, 0.000, 09:17:59.213
195, 16.60, 0.00, 22.00, 16.81, 0.000, 0.000, 0.000, 09:17:59.228
196, 14.65, 0.00, 19.41, 15.68, 0.000, 0.000, 0.000, 09:17:59.228
197, 15.83, 0.00, 17.65, 18.09, 0.000, 0.000, 0.000, 09:17:59.228
198, 16.82, 0.00, 18.39, 16.28, 0.000, 0.000, 0.000, 09:17:59.228
199, 9.55, 0.00, 12.33, 11.51, 0.000, 0.000, 0.000, 09:17:59.243
200, 8.96, 0.00, 14.73, 8.03, 0.000, 0.000, 0.000, 09:17:59.243
0, 17.55, 0.00, 22.88, 20.05, 0.000, 0.000, 0.000, 09:17:59.243
1, 18.30, 0.00, 18.60, 17.07, 0.000, 0.000, 0.000, 09:17:59.258
2, 12.68, 0.00, 15.07, 12.06, 0.000, 0.000, 0.000, 09:17:59.258
3, 13.39, 0.00, 19.03, 17.55, 0.000, 0.000, 0.000, 09:17:59.272
4, 18.75, 0.00, 17.56, 18.53, 0.000, 0.000, 0.000, 09:17:59.272
5, 16.77, 0.00, 16.14, 17.98, 0.000, 0.000, 0.000, 09:17:59.283
6, 13.26, 0.00, 15.60, 13.93, 0.000, 0.000, 0.000, 09:17:59.283
7, 12.47, 0.00, 16.33, 12.18, 0.000, 0.000, 0.000, 09:17:59.287
8, 15.41, 0.00, 15.28, 15.83, 0.000, 0.000, 0.000, 09:17:59.287
9, 16.50, 0.00, 19.29, 21.70, 0.000, 0.000, 0.000, 09:17:59.301
10, 13.72, 0.00, 15.31, 15.11, 0.000, 0.000, 0.000, 09:17:59.302
11, 10.09, 0.00, 15.10, 13.27, 0.000, 0.000, 0.000, 09:17:59.302
12, 18.00, 0.00, 20.77, 16.46, 0.000, 0.000, 0.000, 09:17:59.302
13, 15.79, 0.00, 17.15, 20.07, 0.000, 0.000, 0.000, 09:17:59.317
14, 7.55, 0.00, 10.17, 5.94, 0.000, 0.000, 0.000, 09:17:59.317
15, 15.72, 0.00, 16.86, 19.66, 0.000, 0.000, 0.000, 09:17:59.331
16, 19.31, 0.00, 18.85, 19.17, 0.000, 0.000, 0.000, 09:17:59.331
17, 15.96, 0.00, 19.58, 19.78, 0.000, 0.000, 0.000, 09:17:59.332
18, 10.71, 0.00, 15.66, 16.78, 0.000, 0.000, 0.000, 09:17:59.333
19, 8.77, 0.00, 14.05, 14.59, 0.000, 0.000, 0.000, 09:17:59.346
20, 16.93, 0.00, 17.51, 19.31, 0.000, 0.000, 0.000, 09:17:59.347
21, 17.25, 0.00, 23.38, 23.58, 0.000, 0.000, 0.000, 09:17:59.361
22, 12.73, 0.00, 14.16, 13.01, 0.000, 0.000, 0.000, 09:17:59.362
23, 10.40, 0.00, 14.54, 13.91, 0.000, 0.000, 0.000, 09:17:59.362
24, 14.59, 0.00, 23.47, 17.83, 0.000, 0.000, 0.000, 09:17:59.362
25, 16.38, 0.00, 15.92, 17.45, 0.000, 0.000, 0.000, 09:17:59.378
26, 14.37, 0.00, 12.87, 6.70, 0.000, 0.000, 0.000, 09:17:59.378
27, 15.11, 0.00, 18.54, 12.59, 0.000, 0.000, 0.000, 09:17:59.392
28, 16.36, 0.00, 23.15, 17.73, 0.000, 0.000, 0.000, 09:17:59.392
29, 15.71, 0.00, 16.59, 16.36, 0.000, 0.000, 0.000, 09:17:59.393
30, 14.85, 0.00, 15.27, 17.91, 0.000, 0.000, 0.000, 09:17:59.393
31, 16.07, 0.00, 14.61, 10.63, 0.000, 0.000, 0.000, 09:17:59.408
32, 17.62, 0.00, 18.78, 16.60, 0.000, 0.000, 0.000, 09:17:59.408
33, 16.09, 0.00, 21.44, 21.15, 0.000, 0.000, 0.000, 09:17:59.422
34, 12.56, 0.00, 12.60, 14.17, 0.000, 0.000, 0.000, 09:17:59.422
35, 11.95, 0.00, 17.36, 14.53, 0.000, 0.000, 0.000, 09:17:59.422
36, 14.60, 0.00, 23.90, 18.70, 0.000, 0.000, 0.000, 09:17:59.423
37, 15.92, 0.00, 23.30, 21.04, 0.000, 0.000, 0.000, 09:17:59.437
38, 12.71, 0.00, 13.49, 10.54, 0.000, 0.000, 0.000, 09:17:59.437
39, 15.33, 0.00, 15.01, 16.70, 0.000, 0.000, 0.000, 09:17:59.451
40, 17.41, 0.00, 19.26, 18.62, 0.000, 0.000, 0.000, 09:17:59.452
41, 13.78, 0.00, 17.93, 18.82, 0.000, 0.000, 0.000, 09:17:59.452
42, 12.42, 0.00, 10.94, 11.08, 0.000, 0.000, 0.000, 09:17:59.452
43, 13.01, 0.00, 16.62, 14.85, 0.000, 0.000, 0.000, 09:17:59.466
44, 17.39, 0.00, 16.48, 16.55, 0.000, 0.000, 0.000, 09:17:59.467
45, 15.25, 0.00, 18.02, 14.96, 0.000, 0.000, 0.000, 09:17:59.482
46, 13.19, 0.00, 12.69, 11.08, 0.000, 0.000, 0.000, 09:17:59.482
47, 13.56, 0.00, 14.17, 9.01, 0.000, 0.000, 0.000, 09:17:59.483
48, 13.13, 0.00, 17.58, 20.37, 0.000, 0.000, 0.000, 09:17:59.483
49, 15.08, 0.00, 19.18, 16.71, 0.000, 0.000, 0.000, 09:17:59.499
50, 11.45, 0.00, 14.44, 11.34, 0.000, 0.000, 0.000, 09:17:59.499
51, 13.03, 0.00, 17.32, 20.93, 0.000, 0.000, 0.000, 09:17:59.514
52, 18.52, 0.00, 17.61, 19.68, 0.000, 0.000, 0.000, 09:17:59.515
53, 17.21, 0.00, 21.35, 16.24, 0.000, 0.000, 0.000, 09:17:59.517
54, 13.11, 0.00, 14.96, 18.37, 0.000, 0.000, 0.000, 09:17:59.517
55, 11.75, 0.00, 11.91, 12.60, 0.000, 0.000, 0.000, 09:17:59.529
56, 12.39, 0.00, 16.95, 15.01, 0.000, 0.000, 0.000, 09:17:59.530
57, 17.60, 0.00, 19.43, 23.11, 0.000, 0.000, 0.000, 09:17:59.543
58, 13.60, 0.00, 15.93, 13.94, 0.000, 0.000, 0.000, 09:17:59.544
59, 11.24, 0.00, 15.89, 14.04, 0.000, 0.000, 0.000, 09:17:59.544
60, 18.00, 0.00, 25.22, 21.77, 0.000, 0.000, 0.000, 09:17:59.545
61, 18.40, 0.00, 19.71, 24.94, 0.000, 0.000, 0.000, 09:17:59.557
62, 11.27, 0.00, 12.35, 9.04, 0.000, 0.000, 0.000, 09:17:59.558
63, 13.70, 0.00, 16.64, 15.88, 0.000, 0.000, 0.000, 09:17:59.572
64, 14.60, 0.00, 23.20, 19.08, 0.000, 0.000, 0.000, 09:17:59.572
65, 16.60, 0.00, 14.74, 14.09, 0.000, 0.000, 0.000, 09:17:59.573
66, 12.35, 0.00, 12.53, 12.82, 0.000, 0.000, 0.000, 09:17:59.573
67, 13.71, 0.00, 14.07, 12.76, 0.000, 0.000, 0.000, 09:17:59.588
68, 14.37, 0.00, 13.13, 16.07, 0.000, 0.000, 0.000, 09:17:59.588
69, 16.82, 0.00, 17.49, 18.13, 0.000, 0.000, 0.000, 09:17:59.602
70, 12.80, 0.00, 15.95, 16.15, 0.000, 0.000, 0.000, 09:17:59.603
71, 12.21, 0.00, 13.67, 8.17, 0.000, 0.000, 0.000, 09:17:59.603
72, 17.33, 0.00, 20.40, 21.08, 0.000, 0.000, 0.000, 09:17:59.603
73, 15.54, 0.00, 21.72, 19.99, 0.000, 0.000, 0.000, 09:17:59.618
74, 12.08, 0.00, 10.52, 9.42, 0.000, 0.000, 0.000, 09:17:59.618
75, 13.14, 0.00, 18.64, 16.43, 0.000, 0.000, 0.000, 09:17:59.633
76, 18.45, 0.00, 20.45, 17.95, 0.000, 0.000, 0.000, 09:17:59.633
77, 14.23, 0.00, 18.46, 14.52, 0.000, 0.000, 0.000, 09:17:59.633
78, 12.63, 0.00, 16.71, 16.48, 0.000, 0.000, 0.000, 09:17:59.634
79, 14.01, 0.00, 20.03, 17.23, 0.000, 0.000, 0.000, 09:17:59.648
80, 15.10, 0.00, 17.95, 17.77, 0.000, 0.000, 0.000, 09:17:59.649
81, 14.39, 0.00, 20.69, 18.28, 0.000, 0.000, 0.000, 09:17:59.662
82, 12.05, 0.00, 17.80, 13.93, 0.000, 0.000, 0.000, 09:17:59.662
83, 12.62, 0.00, 16.04, 11.26, 0.000, 0.000, 0.000, 09:17:59.662
84, 16.84, 0.00, 18.17, 18.76, 0.000, 0.000, 0.000, 09:17:59.663
85, 17.40, 0.00, 26.14, 21.14, 0.000, 0.000, 0.000, 09:17:59.676
86, 10.53, 0.00, 8.83, 11.47, 0.000, 0.000, 0.000, 09:17:59.677
87, 14.11, 0.00, 19.50, 18.94, 0.000, 0.000, 0.000, 09:17:59.693
88, 14.43, 0.00, 16.69, 16.49, 0.000, 0.000, 0.000, 09:17:59.693
89, 14.92, 0.00, 19.28, 11.08, 0.000, 0.000, 0.000, 09:17:59.693
90, 11.03, 0.00, 14.40, 12.36, 0.000, 0.000, 0.000, 09:17:59.693
91, 16.34, 0.00, 14.94, 11.65, 0.000, 0.000, 0.000, 09:17:59.709
92, 16.84, 0.00, 16.25, 17.76, 0.000, 0.000, 0.000, 09:17:59.709
93, 16.27, 0.00, 18.61, 19.86, 0.000, 0.000, 0.000, 09:17:59.721
94, 15.28, 0.00, 16.51, 14.71, 0.000, 0.000, 0.000, 09:17:59.721
95, 10.54, 0.00, 15.55, 12.01, 0.000, 0.000, 0.000, 09:17:59.722
96, 15.14, 0.00, 23.16, 18.88, 0.000, 0.000, 0.000, 09:17:59.722
97, 15.31, 0.00, 17.44, 21.61, 0.000, 0.000, 0.000, 09:17:59.736
98, 12.96, 0.00, 11.82, 8.17, 0.000, 0.000, 0.000, 09:17:59.736
99, 13.53, 0.00, 16.24, 17.71, 0.000, 0.000, 0.000, 09:17:59.752
100, 16.37, 0.00, 21.90, 18.34, 0.000, 0.000, 0.000, 09:17:59.752
101, 20.33, 0.00, 19.63, 15.32, 0.000, 0.000, 0.000, 09:17:59.752
102, 14.60, 0.00, 13.07, 15.65, 0.000, 0.000, 0.000, 09:17:59.752
103, 12.94, 0.00, 14.54, 15.12, 0.000, 0.000, 0.000, 09:17:59.767
104, 16.02, 0.00, 18.14, 13.03, 0.000, 0.000, 0.000, 09:17:59.767
105, 19.97, 0.00, 22.26, 18.78, 0.000, 0.000, 0.000, 09:17:59.781
106, 13.79, 0.00, 15.33, 11.55, 0.000, 0.000, 0.000, 09:17:59.781
107, 10.90, 0.00, 15.53, 15.72, 0.000, 0.000, 0.000, 09:17:59.782
108, 15.00, 0.00, 20.64, 21.09, 0.000, 0.000, 0.000, 09:17:59.782
109, 14.07, 0.00, 19.77, 19.67, 0.000, 0.000, 0.000, 09:17:59.797
110, 12.25, 0.00, 7.25, 8.22, 0.000, 0.000, 0.000, 09:17:59.798
111, 12.45, 0.00, 20.10, 14.39, 0.000, 0.000, 0.000, 09:17:59.815
112, 15.20, 0.00, 19.77, 18.14, 0.000, 0.000, 0.000, 09:17:59.815
113, 17.31, 0.00, 18.25, 18.19, 0.000, 0.000, 0.000, 09:17:59.816
114, 12.60, 0.00, 16.09, 16.02, 0.000, 0.000, 0.000, 09:17:59.816
115, 12.96, 0.00, 14.73, 13.67, 0.000, 0.000, 0.000, 09:17:59.827
116, 16.91, 0.00, 14.79, 13.62, 0.000, 0.000, 0.000, 09:17:59.827
117, 18.32, 0.00, 17.35, 19.98, 0.000, 0.000, 0.000, 09:17:59.842
118, 15.42, 0.00, 17.57, 13.65, 0.000, 0.000, 0.000, 09:17:59.843
119, 16.66, 0.00, 14.78, 13.38, 0.000, 0.000, 0.000, 09:17:59.844
120, 15.63, 0.00, 22.56, 20.83, 0.000, 0.000, 0.000, 09:17:59.844
121, 15.94, 0.00, 19.77, 15.54, 0.000, 0.000, 0.000, 09:17:59.857
122, 13.92, 0.00, 12.61, 11.78, 0.000, 0.000, 0.000, 09:17:59.857
123, 14.54, 0.00, 16.83, 17.79, 0.000, 0.000, 0.000, 09:17:59.873
124, 13.10, 0.00, 16.75, 18.65, 0.000, 0.000, 0.000, 09:17:59.873
125, 14.93, 0.00, 15.67, 16.29, 0.000, 0.000, 0.000, 09:17:59.874
126, 11.66, 0.00, 18.10, 9.01, 0.000, 0.000, 0.000, 09:17:59.874
127, 14.06, 0.00, 17.56, 16.32, 0.000, 0.000, 0.000, 09:17:59.888
128, 14.50, 0.00, 19.74, 12.63, 0.000, 0.000, 0.000, 09:17:59.888
129, 15.69, 0.00, 17.15, 17.54, 0.000, 0.000, 0.000, 09:17:59.903
130, 9.24, 0.00, 12.87, 8.10, 0.000, 0.000, 0.000, 09:17:59.903
131, 13.58, 0.00, 14.48, 14.14, 0.000, 0.000, 0.000, 09:17:59.903
132, 18.44, 0.00, 21.55, 24.07, 0.000, 0.000, 0.000, 09:17:59.903
133, 14.89, 0.00, 20.85, 15.97, 0.000, 0.000, 0.000, 09:17:59.917
134, 10.87, 0.00, 13.12, 10.15, 0.000, 0.000, 0.000, 09:17:59.918
135, 14.32, 0.00, 19.70, 14.32, 0.000, 0.000, 0.000, 09:17:59.932
136, 18.79, 0.00, 23.48, 22.67, 0.000, 0.000, 0.000, 09:17:59.933
137, 16.52, 0.00, 16.73, 17.44, 0.000, 0.000, 0.000, 09:17:59.933
138, 10.41, 0.00, 13.48, 11.81, 0.000, 0.000, 0.000, 09:17:59.934
139, 11.63, 0.00, 15.05, 14.79, 0.000, 0.000, 0.000, 09:17:59.947
140, 14.92, 0.00, 16.68, 17.04, 0.000, 0.000, 0.000, 09:17:59.947
141, 16.67, 0.00, 19.97, 18.02, 0.000, 0.000, 0.000, 09:17:59.962
142, 8.28, 0.00, 12.00, 12.71, 0.000, 0.000, 0.000, 09:17:59.962
143, 12.25, 0.00, 16.01, 13.28, 0.000, 0.000, 0.000, 09:17:59.963
144, 16.16, 0.00, 21.82, 23.33, 0.000, 0.000, 0.000, 09:17:59.963
145, 22.31, 0.00, 20.26, 16.94, 0.000, 0.000, 0.000, 09:17:59.978
146, 12.78, 0.00, 11.49, 10.77, 0.000, 0.000, 0.000, 09:17:59.979
147, 12.35, 0.00, 16.24, 14.60, 0.000, 0.000, 0.000, 09:17:59.993
148, 15.80, 0.00, 22.04, 23.38, 0.000, 0.000, 0.000, 09:17:59.994
149, 14.74, 0.00, 17.57, 10.39, 0.000, 0.000, 0.000, 09:17:59.995
150, 11.54, 0.00, 14.13, 13.14, 0.000, 0.000, 0.000, 09:17:59.996
151, 16.55, 0.00, 19.11, 16.50, 0.000, 0.000, 0.000, 09:18:00.015
152, 16.39, 0.00, 16.89, 17.27, 0.000, 0.000, 0.000, 09:18:00.016
153, 14.22, 0.00, 18.40, 21.57, 0.000, 0.000, 0.000, 09:18:00.023
154, 10.02, 0.00, 11.84, 13.03, 0.000, 0.000, 0.000, 09:18:00.023
155, 12.22, 0.00, 16.31, 12.20, 0.000, 0.000, 0.000, 09:18:00.025
156, 17.76, 0.00, 23.48, 25.38, 0.000, 0.000, 0.000, 09:18:00.027
157, 17.67, 0.00, 17.89, 19.41, 0.000, 0.000, 0.000, 09:18:00.037
158, 12.56, 0.00, 13.25, 10.51, 0.000, 0.000, 0.000, 09:18:00.037
159, 14.59, 0.00, 15.83, 18.61, 0.000, 0.000, 0.000, 09:18:00.052
160, 14.66, 0.00, 21.80, 21.04, 0.000, 0.000, 0.000, 09:18:00.052
161, 18.10, 0.00, 17.89, 16.17, 0.000, 0.000, 0.000, 09:18:00.053
162, 14.67, 0.00, 16.11, 15.89, 0.000, 0.000, 0.000, 09:18:00.053
163, 12.93, 0.00, 17.29, 14.79, 0.000, 0.000, 0.000, 09:18:00.067
164, 14.86, 0.00, 17.56, 14.17, 0.000, 0.000, 0.000, 09:18:00.067
165, 20.22, 0.00, 20.54, 20.09, 0.000, 0.000, 0.000, 09:18:00.081
166, 11.48, 0.00, 14.24, 10.94, 0.000, 0.000, 0.000, 09:18:00.082
167, 11.70, 0.00, 15.07, 14.11, 0.000, 0.000, 0.000, 09:18:00.082
168, 19.94, 0.00, 20.81, 25.02, 0.000, 0.000, 0.000, 09:18:00.082
169, 14.12, 0.00, 19.00, 13.45, 0.000, 0.000, 0.000, 09:18:00.098
170, 10.17, 0.00, 13.32, 10.60, 0.000, 0.000, 0.000, 09:18:00.098
171, 15.48, 0.00, 18.36, 20.68, 0.000, 0.000, 0.000, 09:18:00.113
172, 18.46, 0.00, 20.91, 20.25, 0.000, 0.000, 0.000, 09:18:00.114
173, 15.03, 0.00, 17.15, 18.50, 0.000, 0.000, 0.000, 09:18:00.114
174, 10.16, 0.00, 17.00, 18.06, 0.000, 0.000, 0.000, 09:18:00.115
175, 14.33, 0.00, 19.80, 16.42, 0.000, 0.000, 0.000, 09:18:00.129
176, 16.21, 0.00, 18.27, 13.66, 0.000, 0.000, 0.000, 09:18:00.129
177, 15.94, 0.00, 18.95, 19.73, 0.000, 0.000, 0.000, 09:18:00.142
178, 13.92, 0.00, 13.01, 11.55, 0.000, 0.000, 0.000, 09:18:00.143
179, 13.53, 0.00, 14.12, 13.02, 0.000, 0.000, 0.000, 09:18:00.144
180, 16.00, 0.00, 20.71, 15.91, 0.000, 0.000, 0.000, 09:18:00.144
181, 16.72, 0.00, 17.88, 18.02, 0.000, 0.000, 0.000, 09:18:00.157
182, 11.50, 0.00, 8.59, 9.22, 0.000, 0.000, 0.000, 09:18:00.158
183, 17.75, 0.00, 22.23, 18.51, 0.000, 0.000, 0.000, 09:18:00.172
184, 19.17, 0.00, 21.09, 20.80, 0.000, 0.000, 0.000, 09:18:00.172
185, 16.85, 0.00, 18.13, 14.18, 0.000, 0.000, 0.000, 09:18:00.173
186, 11.91, 0.00, 14.65, 12.58, 0.000, 0.000, 0.000, 09:18:00.174
187, 15.24, 0.00, 19.10, 15.59, 0.000, 0.000, 0.000, 09:18:00.187
188, 17.48, 0.00, 14.80, 17.64, 0.000, 0.000, 0.000, 09:18:00.187
189, 13.98, 0.00, 17.47, 13.32, 0.000, 0.000, 0.000, 09:18:00.202
190, 11.07, 0.00, 14.52, 13.47, 0.000, 0.000, 0.000, 09:18:00.202
191, 10.82, 0.00, 12.40, 12.82, 0.000, 0.000, 0.000, 09:18:00.203
192, 15.25, 0.00, 24.03, 21.26, 0.000, 0.000, 0.000, 09:18:00.203
193, 11.26, 0.00, 17.64, 15.17, 0.000, 0.000, 0.000, 09:18:00.217
194, 6.07, 0.00, 10.44, 5.22, 0.000, 0.000, 0.000, 09:18:00.218
195, 14.08, 0.00, 19.34, 15.67, 0.000, 0.000, 0.000, 09:18:00.232
196, 15.47, 0.00, 23.31, 17.21, 0.000, 0.000, 0.000, 09:18:00.232
197, 13.67, 0.00, 14.21, 10.70, 0.000, 0.000, 0.000, 09:18:00.233
198, 13.13, 0.00, 13.21, 15.34, 0.000, 0.000, 0.000, 09:18:00.233
199, 16.41, 0.00, 17.28, 17.53, 0.000, 0.000, 0.000, 09:18:00.247
200, 12.02, 0.00, 17.85, 18.38, 0.000, 0.000, 0.000, 09:18:00.248
0, 19.85, 0.00, 19.87, 19.97, 0.000, 0.000, 0.000, 09:18:00.248
1, 16.33, 0.00, 10.44, 8.45, 0.000, 0.000, 0.000, 09:18:00.263
2, 15.14, 0.00, 14.07, 11.91, 0.000, 0.000, 0.000, 09:18:00.264
3, 18.23, 0.00, 24.30, 20.61, 0.000, 0.000, 0.000, 09:18:00.279
4, 21.66, 0.00, 18.38, 15.64, 0.000, 0.000, 0.000, 09:18:00.279
5, 11.03, 0.00, 15.55, 10.92, 0.000, 0.000, 0.000, 09:18:00.279
6, 13.19, 0.00, 20.03, 18.23, 0.000, 0.000, 0.000, 09:18:00.280
7, 19.45, 0.00, 23.41, 21.61, 0.000, 0.000, 0.000, 09:18:00.292
8, 11.83, 0.00, 15.07, 14.30, 0.000, 0.000, 0.000, 09:18:00.293
9, 11.80, 0.00, 16.41, 16.26, 0.000, 0.000, 0.000, 09:18:00.307
10, 14.27, 0.00, 16.30, 13.62, 0.000, 0.000, 0.000, 09:18:00.308
11, 18.32, 0.00, 15.51, 18.37, 0.000, 0.000, 0.000, 09:18:00.309
12, 16.91, 0.00, 16.46, 16.23, 0.000, 0.000, 0.000, 09:18:00.310
13, 12.34, 0.00, 13.49, 14.94, 0.000, 0.000, 0.000, 09:18:00.324
14, 10.84, 0.00, 13.75, 15.09, 0.000, 0.000, 0.000, 09:18:00.325
15, 21.36, 0.00, 25.15, 22.30, 0.000, 0.000, 0.000, 09:18:00.337
16, 14.50, 0.00, 13.64, 15.35, 0.000, 0.000, 0.000, 09:18:00.337
17, 9.77, 0.00, 9.81, 10.00, 0.000, 0.000, 0.000, 09:18:00.338
18, 13.18, 0.00, 18.01, 16.33, 0.000, 0.000, 0.000, 09:18:00.338
19, 17.67, 0.00, 22.50, 20.23, 0.000, 0.000, 0.000, 09:18:00.359
20, 15.62, 0.00, 16.94, 14.23, 0.000, 0.000, 0.000, 09:18:00.359
21, 10.24, 0.00, 13.96, 12.01, 0.000, 0.000, 0.000, 09:18:00.367
22, 13.60, 0.00, 18.89, 17.25, 0.000, 0.000, 0.000, 09:18:00.368
23, 16.18, 0.00, 20.64, 18.57, 0.000, 0.000, 0.000, 09:18:00.368
24, 14.59, 0.00, 13.86, 20.22, 0.000, 0.000, 0.000, 09:18:00.368
25, 14.16, 0.00, 13.11, 11.91, 0.000, 0.000, 0.000, 09:18:00.382
26, 10.84, 0.00, 13.73, 11.23, 0.000, 0.000, 0.000, 09:18:00.382
27, 17.83, 0.00, 23.19, 26.09, 0.000, 0.000, 0.000, 09:18:00.397
28, 14.82, 0.00, 16.04, 13.54, 0.000, 0.000, 0.000, 09:18:00.397
29, 14.82, 0.00, 12.60, 11.29, 0.000, 0.000, 0.000, 09:18:00.398
30, 13.37, 0.00, 18.71, 19.08, 0.000, 0.000, 0.000, 09:18:00.398
31, 18.76, 0.00, 21.89, 19.19, 0.000, 0.000, 0.000, 09:18:00.412
32, 15.47, 0.00, 14.52, 15.85, 0.000, 0.000, 0.000, 09:18:00.413
33, 13.36, 0.00, 17.43, 17.21, 0.000, 0.000, 0.000, 09:18:00.428
34, 16.95, 0.00, 19.64, 16.82, 0.000, 0.000, 0.000, 09:18:00.428
35, 17.98, 0.00, 20.81, 18.51, 0.000, 0.000, 0.000, 09:18:00.430
36, 11.79, 0.00, 20.74, 16.21, 0.000, 0.000, 0.000, 09:18:00.430
37, 13.25, 0.00, 14.07, 12.55, 0.000, 0.000, 0.000, 09:18:00.445
38, 9.13, 0.00, 7.45, 9.90, 0.000, 0.000, 0.000, 09:18:00.445
39, 17.50, 0.00, 20.73, 21.42, 0.000, 0.000, 0.000, 09:18:00.457
40, 14.69, 0.00, 18.03, 12.56, 0.000, 0.000, 0.000, 09:18:00.457
41, 8.11, 0.00, 12.79, 10.44, 0.000, 0.000, 0.000, 09:18:00.459
42, 11.84, 0.00, 18.39, 15.28, 0.000, 0.000, 0.000, 09:18:00.460
43, 13.51, 0.00, 22.30, 18.29, 0.000, 0.000, 0.000, 09:18:00.472
44, 13.61, 0.00, 10.48, 13.05, 0.000, 0.000, 0.000, 09:18:00.472
45, 13.97, 0.00, 15.16, 14.37, 0.000, 0.000, 0.000, 09:18:00.487
46, 16.79, 0.00, 18.79, 17.27, 0.000, 0.000, 0.000, 09:18:00.487
47, 15.44, 0.00, 20.47, 17.25, 0.000, 0.000, 0.000, 09:18:00.488
48, 19.16, 0.00, 19.55, 19.08, 0.000, 0.000, 0.000, 09:18:00.488
49, 13.67, 0.00, 15.25, 13.97, 0.000, 0.000, 0.000, 09:18:00.501
50, 13.36, 0.00, 14.89, 12.48, 0.000, 0.000, 0.000, 09:18:00.502
51, 21.41, 0.00, 25.08, 19.36, 0.000, 0.000, 0.000, 09:18:00.517
52, 19.82, 0.00, 20.63, 17.12, 0.000, 0.000, 0.000, 09:18:00.517
53, 11.87, 0.00, 11.97, 11.49, 0.000, 0.000, 0.000, 09:18:00.517
54, 14.06, 0.00, 18.62, 15.60, 0.000, 0.000, 0.000, 09:18:00.517
55, 18.08, 0.00, 21.46, 20.09, 0.000, 0.000, 0.000, 09:18:00.531
56, 12.19, 0.00, 14.52, 12.15, 0.000, 0.000, 0.000, 09:18:00.532
57, 14.16, 0.00, 14.08, 10.97, 0.000, 0.000, 0.000, 09:18:00.546
58, 15.91, 0.00, 17.39, 22.41, 0.000, 0.000, 0.000, 09:18:00.547
59, 21.76, 0.00, 19.05, 16.53, 0.000, 0.000, 0.000, 09:18:00.547
60, 13.14, 0.00, 22.20, 17.68, 0.000, 0.000, 0.000, 09:18:00.547
61, 10.47, 0.00, 15.00, 12.96, 0.000, 0.000, 0.000, 09:18:00.562
62, 14.16, 0.00, 14.46, 11.80, 0.000, 0.000, 0.000, 09:18:00.562
63, 20.06, 0.00, 23.59, 25.38, 0.000, 0.000, 0.000, 09:18:00.577
64, 14.67, 0.00, 18.50, 17.56, 0.000, 0.000, 0.000, 09:18:00.577
65, 9.80, 0.00, 11.80, 7.75, 0.000, 0.000, 0.000, 09:18:00.578
66, 14.66, 0.00, 16.42, 15.19, 0.000, 0.000, 0.000, 09:18:00.578
67, 18.16, 0.00, 20.34, 20.46, 0.000, 0.000, 0.000, 09:18:00.591
68, 13.01, 0.00, 20.42, 11.03, 0.000, 0.000, 0.000, 09:18:00.592
69, 14.62, 0.00, 12.60, 16.26, 0.000, 0.000, 0.000, 09:18:00.607
70, 14.47, 0.00, 16.01, 18.83, 0.000, 0.000, 0.000, 09:18:00.607
71, 13.10, 0.00, 19.34, 17.28, 0.000, 0.000, 0.000, 09:18:00.609
72, 12.03, 0.00, 16.41, 17.52, 0.000, 0.000, 0.000, 09:18:00.610
73, 11.74, 0.00, 13.97, 12.04, 0.000, 0.000, 0.000, 09:18:00.624
74, 7.99, 0.00, 10.28, 13.23, 0.000, 0.000, 0.000, 09:18:00.625
75, 18.30, 0.00, 23.61, 23.09, 0.000, 0.000, 0.000, 09:18:00.638
76, 17.02, 0.00, 16.49, 14.77, 0.000, 0.000, 0.000, 09:18:00.638
77, 12.32, 0.00, 11.03, 11.21, 0.000, 0.000, 0.000, 09:18:00.640
78, 15.25, 0.00, 20.68, 15.88, 0.000, 0.000, 0.000, 09:18:00.641
79, 22.24, 0.00, 21.32, 22.11, 0.000, 0.000, 0.000, 09:18:00.656
80, 17.25, 0.00, 13.90, 10.86, 0.000, 0.000, 0.000, 09:18:00.657
81, 12.22, 0.00, 15.75, 12.11, 0.000, 0.000, 0.000, 09:18:00.668
82, 11.98, 0.00, 13.51, 16.12, 0.000, 0.000, 0.000, 09:18:00.668
83, 16.94, 0.00, 19.88, 20.11, 0.000, 0.000, 0.000, 09:18:00.668
84, 16.16, 0.00, 17.91, 19.04, 0.000, 0.000, 0.000, 09:18:00.668
85, 14.72, 0.00, 13.90, 17.05, 0.000, 0.000, 0.000, 09:18:00.689
86, 13.71, 0.00, 16.60, 15.18, 0.000, 0.000, 0.000, 09:18:00.689
87, 19.02, 0.00, 19.28, 20.60, 0.000, 0.000, 0.000, 09:18:00.698
88, 10.34, 0.00, 17.62, 14.55, 0.000, 0.000, 0.000, 09:18:00.699
89, 9.84, 0.00, 8.15, 11.78, 0.000, 0.000, 0.000, 09:18:00.699
90, 12.86, 0.00, 20.07, 15.28, 0.000, 0.000, 0.000, 09:18:00.699
91, 14.02, 0.00, 21.80, 18.75, 0.000, 0.000, 0.000, 09:18:00.712
92, 15.79, 0.00, 15.77, 8.28, 0.000, 0.000, 0.000, 09:18:00.712
93, 11.36, 0.00, 16.25, 13.63, 0.000, 0.000, 0.000, 09:18:00.728
94, 19.22, 0.00, 21.35, 18.45, 0.000, 0.000, 0.000, 09:18:00.728
95, 14.69, 0.00, 19.87, 17.93, 0.000, 0.000, 0.000, 09:18:00.729
96, 14.22, 0.00, 15.44, 16.07, 0.000, 0.000, 0.000, 09:18:00.729
97, 9.78, 0.00, 15.90, 10.43, 0.000, 0.000, 0.000, 09:18:00.745
98, 13.68, 0.00, 15.17, 14.46, 0.000, 0.000, 0.000, 09:18:00.745
99, 16.45, 0.00, 19.47, 21.85, 0.000, 0.000, 0.000, 09:18:00.757
100, 17.11, 0.00, 15.97, 16.85, 0.000, 0.000, 0.000, 09:18:00.757
101, 9.27, 0.00, 13.23, 14.06, 0.000, 0.000, 0.000, 09:18:00.758
102, 15.76, 0.00, 18.93, 17.85, 0.000, 0.000, 0.000, 09:18:00.758
103, 18.48, 0.00, 21.28, 20.73, 0.000, 0.000, 0.000, 09:18:00.772
104, 14.46, 0.00, 14.68, 10.75, 0.000, 0.000, 0.000, 09:18:00.772
105, 17.61, 0.00, 15.28, 13.79, 0.000, 0.000, 0.000, 09:18:00.787
106, 14.49, 0.00, 16.99, 16.88, 0.000, 0.000, 0.000, 09:18:00.787
107, 14.15, 0.00, 19.94, 21.42, 0.000, 0.000, 0.000, 09:18:00.788
108, 12.59, 0.00, 20.37, 13.82, 0.000, 0.000, 0.000, 09:18:00.788
109, 12.52, 0.00, 10.90, 13.45, 0.000, 0.000, 0.000, 09:18:00.802
110, 13.28, 0.00, 14.45, 12.50, 0.000, 0.000, 0.000, 09:18:00.802
111, 20.08, 0.00, 26.21, 25.46, 0.000, 0.000, 0.000, 09:18:00.817
112, 14.90, 0.00, 20.92, 16.73, 0.000, 0.000, 0.000, 09:18:00.817
113, 13.50, 0.00, 13.53, 9.56, 0.000, 0.000, 0.000, 09:18:00.818
114, 10.15, 0.00, 15.53, 17.24, 0.000, 0.000, 0.000, 09:18:00.818
115, 17.11, 0.00, 19.45, 15.96, 0.000, 0.000, 0.000, 09:18:00.832
116, 12.21, 0.00, 15.78, 15.53, 0.000, 0.000, 0.000, 09:18:00.832
117, 10.00, 0.00, 14.20, 15.36, 0.000, 0.000, 0.000, 09:18:00.849
118, 17.75, 0.00, 18.72, 17.92, 0.000, 0.000, 0.000, 09:18:00.849
119, 18.28, 0.00, 19.17, 13.78, 0.000, 0.000, 0.000, 09:18:00.849
120, 13.42, 0.00, 18.28, 16.59, 0.000, 0.000, 0.000, 09:18:00.849
121, 10.35, 0.00, 15.60, 13.30, 0.000, 0.000, 0.000, 09:18:00.862
122, 14.74, 0.00, 11.98, 12.58, 0.000, 0.000, 0.000, 09:18:00.862
123, 20.55, 0.00, 24.12, 22.37, 0.000, 0.000, 0.000, 09:18:00.877
124, 12.66, 0.00, 20.85, 13.56, 0.000, 0.000, 0.000, 09:18:00.877
125, 11.64, 0.00, 14.52, 13.01, 0.000, 0.000, 0.000, 09:18:00.878
126, 14.22, 0.00, 20.03, 14.70, 0.000, 0.000, 0.000, 09:18:00.878
127, 14.58, 0.00, 20.74, 20.85, 0.000, 0.000, 0.000, 09:18:00.892
128, 13.10, 0.00, 11.58, 12.16, 0.000, 0.000, 0.000, 09:18:00.892
129, 14.00, 0.00, 14.41, 15.88, 0.000, 0.000, 0.000, 09:18:00.907
130, 17.88, 0.00, 19.22, 18.19, 0.000, 0.000, 0.000, 09:18:00.908
131, 17.61, 0.00, 17.03, 21.62, 0.000, 0.000, 0.000, 09:18:00.909
132, 11.59, 0.00, 17.77, 16.25, 0.000, 0.000, 0.000, 09:18:00.909
133, 12.38, 0.00, 14.60, 13.56, 0.000, 0.000, 0.000, 09:18:00.922
134, 12.09, 0.00, 13.47, 13.07, 0.000, 0.000, 0.000, 09:18:00.922
135, 22.55, 0.00, 24.96, 23.87, 0.000, 0.000, 0.000, 09:18:00.936
136, 14.13, 0.00, 12.66, 14.55, 0.000, 0.000, 0.000, 09:18:00.937
137, 10.68, 0.00, 12.05, 11.10, 0.000, 0.000, 0.000, 09:18:00.951
138, 16.79, 0.00, 15.80, 20.86, 0.000, 0.000, 0.000, 09:18:00.951
139, 17.50, 0.00, 20.54, 20.77, 0.000, 0.000, 0.000, 09:18:00.953
140, 12.47, 0.00, 13.10, 12.02, 0.000, 0.000, 0.000, 09:18:00.953
141, 15.42, 0.00, 22.85, 14.70, 0.000, 0.000, 0.000, 09:18:00.968
142, 12.75, 0.00, 18.58, 19.20, 0.000, 0.000, 0.000, 09:18:00.968
143, 16.27, 0.00, 14.91, 17.79, 0.000, 0.000, 0.000, 09:18:00.968
144, 15.46, 0.00, 20.52, 18.90, 0.000, 0.000, 0.000, 09:18:00.968
145, 12.33, 0.00, 13.43, 13.97, 0.000, 0.000, 0.000, 09:18:00.982
146, 15.43, 0.00, 18.52, 13.00, 0.000, 0.000, 0.000, 09:18:00.982
147, 19.84, 0.00, 20.81, 19.57, 0.000, 0.000, 0.000, 09:18:00.998
148, 15.27, 0.00, 15.93, 19.34, 0.000, 0.000, 0.000, 09:18:00.998
149, 13.21, 0.00, 10.79, 11.81, 0.000, 0.000, 0.000, 09:18:00.998
150, 15.83, 0.00, 21.47, 12.90, 0.000, 0.000, 0.000, 09:18:00.998
151, 19.23, 0.00, 19.32, 19.82, 0.000, 0.000, 0.000, 09:18:01.013
152, 15.27, 0.00, 10.36, 10.97, 0.000, 0.000, 0.000, 09:18:01.013
153, 11.10, 0.00, 14.52, 12.52, 0.000, 0.000, 0.000, 09:18:01.028
154, 15.53, 0.00, 16.04, 15.90, 0.000, 0.000, 0.000, 09:18:01.029
155, 16.99, 0.00, 18.73, 16.30, 0.000, 0.000, 0.000, 09:18:01.035
156, 14.04, 0.00, 17.49, 15.81, 0.000, 0.000, 0.000, 09:18:01.035
157, 10.74, 0.00, 12.38, 15.66, 0.000, 0.000, 0.000, 09:18:01.043
158, 14.12, 0.00, 17.60, 14.40, 0.000, 0.000, 0.000, 09:18:01.044
159, 17.23, 0.00, 23.35, 22.13, 0.000, 0.000, 0.000, 09:18:01.057
160, 15.27, 0.00, 18.26, 17.06, 0.000, 0.000, 0.000, 09:18:01.057
161, 8.59, 0.00, 9.91, 9.73, 0.000, 0.000, 0.000, 09:18:01.058
162, 14.13, 0.00, 19.24, 16.85, 0.000, 0.000, 0.000, 09:18:01.058
163, 15.64, 0.00, 22.53, 25.27, 0.000, 0.000, 0.000, 09:18:01.074
164, 15.59, 0.00, 10.35, 14.76, 0.000, 0.000, 0.000, 09:18:01.075
165, 10.51, 0.00, 13.76, 17.02, 0.000, 0.000, 0.000, 09:18:01.087
166, 14.19, 0.00, 19.02, 20.15, 0.000, 0.000, 0.000, 09:18:01.088
167, 18.04, 0.00, 21.12, 17.53, 0.000, 0.000, 0.000, 09:18:01.088
168, 17.12, 0.00, 18.81, 19.92, 0.000, 0.000, 0.000, 09:18:01.088
169, 11.60, 0.00, 15.79, 16.48, 0.000, 0.000, 0.000, 09:18:01.103
170, 13.49, 0.00, 14.46, 16.76, 0.000, 0.000, 0.000, 09:18:01.103
171, 19.08, 0.00, 25.29, 24.02, 0.000, 0.000, 0.000, 09:18:01.118
172, 16.37, 0.00, 16.30, 17.15, 0.000, 0.000, 0.000, 09:18:01.118
173, 7.60, 0.00, 13.47, 11.72, 0.000, 0.000, 0.000, 09:18:01.119
174, 13.88, 0.00, 19.42, 19.91, 0.000, 0.000, 0.000, 09:18:01.119
175, 18.46, 0.00, 23.70, 21.43, 0.000, 0.000, 0.000, 09:18:01.134
176, 12.00, 0.00, 10.61, 8.11, 0.000, 0.000, 0.000, 09:18:01.134
177, 13.63, 0.00, 16.58, 11.99, 0.000, 0.000, 0.000, 09:18:01.148
178, 15.60, 0.00, 18.72, 15.76, 0.000, 0.000, 0.000, 09:18:01.148
179, 17.20, 0.00, 17.36, 19.08, 0.000, 0.000, 0.000, 09:18:01.155
180, 14.73, 0.00, 16.60, 13.97, 0.000, 0.000, 0.000, 09:18:01.155
181, 14.42, 0.00, 13.27, 14.57, 0.000, 0.000, 0.000, 09:18:01.163
182, 12.59, 0.00, 14.29, 14.90, 0.000, 0.000, 0.000, 09:18:01.163
183, 16.23, 0.00, 21.29, 24.12, 0.000, 0.000, 0.000, 09:18:01.177
184, 11.50, 0.00, 16.21, 17.90, 0.000, 0.000, 0.000, 09:18:01.177
185, 13.39, 0.00, 9.14, 13.14, 0.000, 0.000, 0.000, 09:18:01.178
186, 17.32, 0.00, 21.03, 16.91, 0.000, 0.000, 0.000, 09:18:01.178
187, 14.87, 0.00, 19.93, 15.02, 0.000, 0.000, 0.000, 09:18:01.192
188, 14.48, 0.00, 16.68, 8.04, 0.000, 0.000, 0.000, 09:18:01.192
189, 10.18, 0.00, 12.70, 16.32, 0.000, 0.000, 0.000, 09:18:01.208
190, 15.93, 0.00, 19.18, 13.56, 0.000, 0.000, 0.000, 09:18:01.208
191, 14.95, 0.00, 15.98, 15.18, 0.000, 0.000, 0.000, 09:18:01.208
192, 13.09, 0.00, 19.74, 14.82, 0.000, 0.000, 0.000, 09:18:01.209
193, 13.98, 0.00, 14.29, 13.89, 0.000, 0.000, 0.000, 09:18:01.222
194, 13.15, 0.00, 14.74, 13.06, 0.000, 0.000, 0.000, 09:18:01.222
195, 19.26, 0.00, 24.26, 20.31, 0.000, 0.000, 0.000, 09:18:01.237
196, 13.71, 0.00, 18.71, 14.20, 0.000, 0.000, 0.000, 09:18:01.237
197, 12.43, 0.00, 15.36, 8.21, 0.000, 0.000, 0.000, 09:18:01.237
198, 11.64, 0.00, 19.05, 16.18, 0.000, 0.000, 0.000, 09:18:01.237
199, 17.28, 0.00, 22.18, 19.76, 0.000, 0.000, 0.000, 09:18:01.252
200, 14.33, 0.00, 10.29, 7.51, 0.000, 0.000, 0.000, 09:18:01.252
0, 13.01, 0.00, 23.93, 12.01, 0.000, 0.000, 0.000, 09:18:01.253
1, 16.23, 0.00, 15.64, 17.80, 0.000, 0.000, 0.000, 09:18:01.267
2, 17.94, 0.00, 18.32, 12.75, 0.000, 0.000, 0.000, 09:18:01.267
3, 19.21, 0.00, 18.47, 16.93, 0.000, 0.000, 0.000, 09:18:01.282
4, 7.52, 0.00, 11.75, 11.18, 0.000, 0.000, 0.000, 09:18:01.282
5, 12.46, 0.00, 17.66, 13.39, 0.000, 0.000, 0.000, 09:18:01.282
6, 18.29, 0.00, 21.17, 20.36, 0.000, 0.000, 0.000, 09:18:01.282
7, 15.97, 0.00, 18.10, 14.92, 0.000, 0.000, 0.000, 09:18:01.297
8, 9.21, 0.00, 9.56, 11.02, 0.000, 0.000, 0.000, 09:18:01.297
9, 13.98, 0.00, 24.14, 18.42, 0.000, 0.000, 0.000, 09:18:01.312
10, 22.57, 0.00, 24.50, 22.49, 0.000, 0.000, 0.000, 09:18:01.313
11, 15.11, 0.00, 10.95, 12.87, 0.000, 0.000, 0.000, 09:18:01.313
12, 10.92, 0.00, 15.47, 13.61, 0.000, 0.000, 0.000, 09:18:01.313
13, 13.14, 0.00, 17.10, 19.08, 0.000, 0.000, 0.000, 09:18:01.326
14, 16.60, 0.00, 17.52, 18.52, 0.000, 0.000, 0.000, 09:18:01.327
15, 12.88, 0.00, 18.81, 15.91, 0.000, 0.000, 0.000, 09:18:01.342
16, 13.13, 0.00, 14.51, 12.32, 0.000, 0.000, 0.000, 09:18:01.342
17, 13.35, 0.00, 16.73, 13.99, 0.000, 0.000, 0.000, 09:18:01.342
18, 19.91, 0.00, 24.81, 18.68, 0.000, 0.000, 0.000, 09:18:01.342
19, 15.59, 0.00, 16.52, 16.36, 0.000, 0.000, 0.000, 09:18:01.358
20, 12.69, 0.00, 8.73, 7.72, 0.000, 0.000, 0.000, 09:18:01.358
21, 14.92, 0.00, 20.68, 23.09, 0.000, 0.000, 0.000, 09:18:01.371
22, 15.69, 0.00, 22.99, 22.32, 0.000, 0.000, 0.000, 09:18:01.371
23, 14.66, 0.00, 12.71, 13.96, 0.000, 0.000, 0.000, 09:18:01.373
24, 8.86, 0.00, 15.90, 14.12, 0.000, 0.000, 0.000, 09:18:01.374
25, 14.31, 0.00, 19.02, 16.26, 0.000, 0.000, 0.000, 09:18:01.395
26, 15.66, 0.00, 15.09, 16.77, 0.000, 0.000, 0.000, 09:18:01.395
27, 11.79, 0.00, 15.87, 12.93, 0.000, 0.000, 0.000, 09:18:01.402
28, 15.17, 0.00, 15.65, 14.07, 0.000, 0.000, 0.000, 09:18:01.402
29, 16.87, 0.00, 19.22, 13.64, 0.000, 0.000, 0.000, 09:18:01.403
30, 15.41, 0.00, 23.75, 19.07, 0.000, 0.000, 0.000, 09:18:01.403
31, 9.57, 0.00, 13.62, 14.34, 0.000, 0.000, 0.000, 09:18:01.418
32, 10.63, 0.00, 10.05, 8.27, 0.000, 0.000, 0.000, 09:18:01.419
33, 18.28, 0.00, 22.94, 21.89, 0.000, 0.000, 0.000, 09:18:01.433
34, 17.72, 0.00, 22.15, 19.25, 0.000, 0.000, 0.000, 09:18:01.433
35, 12.62, 0.00, 16.96, 15.12, 0.000, 0.000, 0.000, 09:18:01.437
36, 14.03, 0.00, 15.43, 11.13, 0.000, 0.000, 0.000, 09:18:01.437
37, 19.71, 0.00, 17.94, 16.74, 0.000, 0.000, 0.000, 09:18:01.449
38, 14.90, 0.00, 14.88, 14.18, 0.000, 0.000, 0.000, 09:18:01.450
39, 19.26, 0.00, 19.47, 18.55, 0.000, 0.000, 0.000, 09:18:01.463
40, 14.31, 0.00, 9.60, 17.46, 0.000, 0.000, 0.000, 09:18:01.463
41, 12.75, 0.00, 13.71, 17.25, 0.000, 0.000, 0.000, 09:18:01.464
42, 15.95, 0.00, 17.23, 23.16, 0.000, 0.000, 0.000, 09:18:01.465
43, 11.00, 0.00, 19.62, 16.85, 0.000, 0.000, 0.000, 09:18:01.477
44, 13.26, 0.00, 14.01, 13.71, 0.000, 0.000, 0.000, 09:18:01.477
45, 13.80, 0.00, 18.36, 15.95, 0.000, 0.000, 0.000, 09:18:01.493
46, 17.31, 0.00, 21.19, 19.72, 0.000, 0.000, 0.000, 09:18:01.493
47, 11.30, 0.00, 13.50, 13.41, 0.000, 0.000, 0.000, 09:18:01.493
48, 14.64, 0.00, 18.24, 12.93, 0.000, 0.000, 0.000, 09:18:01.493
49, 14.69, 0.00, 13.33, 14.91, 0.000, 0.000, 0.000, 09:18:01.508
50, 17.71, 0.00, 19.06, 15.18, 0.000, 0.000, 0.000, 09:18:01.508
51, 17.29, 0.00, 16.81, 15.35, 0.000, 0.000, 0.000, 09:18:01.522
52, 12.70, 0.00, 15.65, 15.58, 0.000, 0.000, 0.000, 09:18:01.522
53, 15.67, 0.00, 18.95, 19.05, 0.000, 0.000, 0.000, 09:18:01.524
54, 18.34, 0.00, 21.63, 21.70, 0.000, 0.000, 0.000, 09:18:01.524
55, 15.40, 0.00, 19.46, 16.68, 0.000, 0.000, 0.000, 09:18:01.537
56, 15.21, 0.00, 12.26, 8.22, 0.000, 0.000, 0.000, 09:18:01.538
57, 14.66, 0.00, 22.22, 19.19, 0.000, 0.000, 0.000, 09:18:01.552
58, 17.95, 0.00, 24.04, 20.44, 0.000, 0.000, 0.000, 09:18:01.553
59, 13.61, 0.00, 15.43, 8.31, 0.000, 0.000, 0.000, 09:18:01.554
60, 11.80, 0.00, 13.36, 13.03, 0.000, 0.000, 0.000, 09:18:01.554
61, 15.23, 0.00, 18.62, 17.33, 0.000, 0.000, 0.000, 09:18:01.567
62, 15.86, 0.00, 15.46, 21.35, 0.000, 0.000, 0.000, 09:18:01.568
63, 14.78, 0.00, 14.92, 20.30, 0.000, 0.000, 0.000, 09:18:01.583
64, 9.42, 0.00, 15.71, 14.23, 0.000, 0.000, 0.000, 09:18:01.583
65, 12.58, 0.00, 17.37, 12.61, 0.000, 0.000, 0.000, 09:18:01.584
66, 15.13, 0.00, 19.64, 16.49, 0.000, 0.000, 0.000, 09:18:01.584
67, 15.43, 0.00, 18.13, 14.01, 0.000, 0.000, 0.000, 09:18:01.598
68, 9.79, 0.00, 10.80, 7.32, 0.000, 0.000, 0.000, 09:18:01.599
69, 20.76, 0.00, 21.21, 21.50, 0.000, 0.000, 0.000, 09:18:01.613
70, 15.38, 0.00, 18.50, 18.63, 0.000, 0.000, 0.000, 09:18:01.613
71, 13.74, 0.00, 11.05, 12.60, 0.000, 0.000, 0.000, 09:18:01.614
72, 9.59, 0.00, 14.16, 12.46, 0.000, 0.000, 0.000, 09:18:01.614
73, 17.74, 0.00, 20.22, 14.98, 0.000, 0.000, 0.000, 09:18:01.628
74, 16.84, 0.00, 14.69, 14.87, 0.000, 0.000, 0.000, 09:18:01.628
75, 12.09, 0.00, 17.74, 14.94, 0.000, 0.000, 0.000, 09:18:01.641
76, 10.09, 0.00, 16.15, 12.26, 0.000, 0.000, 0.000, 09:18:01.642
77, 14.90, 0.00, 17.59, 19.52, 0.000, 0.000, 0.000, 09:18:01.642
78, 18.01, 0.00, 20.07, 19.89, 0.000, 0.000, 0.000, 09:18:01.643
79, 12.65, 0.00, 18.04, 14.07, 0.000, 0.000, 0.000, 09:18:01.657
80, 11.23, 0.00, 10.77, 9.13, 0.000, 0.000, 0.000, 09:18:01.657
81, 13.41, 0.00, 21.24, 18.38, 0.000, 0.000, 0.000, 09:18:01.671
82, 20.18, 0.00, 19.34, 17.92, 0.000, 0.000, 0.000, 09:18:01.672
83, 18.77, 0.00, 14.59, 13.30, 0.000, 0.000, 0.000, 09:18:01.672
84, 14.73, 0.00, 15.70, 16.72, 0.000, 0.000, 0.000, 09:18:01.672
85, 15.95, 0.00, 19.13, 19.35, 0.000, 0.000, 0.000, 09:18:01.687
86, 16.11, 0.00, 20.27, 17.22, 0.000, 0.000, 0.000, 09:18:01.687
87, 13.91, 0.00, 19.82, 19.02, 0.000, 0.000, 0.000, 09:18:01.702
88, 10.71, 0.00, 15.63, 13.83, 0.000, 0.000, 0.000, 09:18:01.702
89, 15.74, 0.00, 16.04, 18.68, 0.000, 0.000, 0.000, 09:18:01.702
90, 18.04, 0.00, 19.74, 17.80, 0.000, 0.000, 0.000, 09:18:01.703
91, 11.43, 0.00, 19.55, 16.54, 0.000, 0.000, 0.000, 09:18:01.717
92, 6.35, 0.00, 9.56, 10.78, 0.000, 0.000, 0.000, 09:18:01.717
93, 18.14, 0.00, 20.52, 16.72, 0.000, 0.000, 0.000, 09:18:01.732
94, 16.00, 0.00, 20.23, 22.58, 0.000, 0.000, 0.000, 09:18:01.732
95, 11.62, 0.00, 12.96, 12.19, 0.000, 0.000, 0.000, 09:18:01.733
96, 7.92, 0.00, 15.01, 13.55, 0.000, 0.000, 0.000, 09:18:01.733
97, 13.90, 0.00, 19.57, 15.77, 0.000, 0.000, 0.000, 09:18:01.748
98, 15.03, 0.00, 19.32, 13.86, 0.000, 0.000, 0.000, 09:18:01.748
99, 15.56, 0.00, 18.04, 18.37, 0.000, 0.000, 0.000, 09:18:01.764
100, 13.73, 0.00, 15.85, 14.28, 0.000, 0.000, 0.000, 09:18:01.765
101, 20.63, 0.00, 15.57, 15.47, 0.000, 0.000, 0.000, 09:18:01.765
102, 17.62, 0.00, 19.29, 21.45, 0.000, 0.000, 0.000, 09:18:01.766
103, 13.16, 0.00, 18.45, 16.01, 0.000, 0.000, 0.000, 09:18:01.777
104, 9.69, 0.00, 9.40, 12.03, 0.000, 0.000, 0.000, 09:18:01.777
105, 18.07, 0.00, 25.68, 21.73, 0.000, 0.000, 0.000, 09:18:01.792
106, 16.44, 0.00, 20.98, 17.17, 0.000, 0.000, 0.000, 09:18:01.793
107, 12.34, 0.00, 13.61, 11.24, 0.000, 0.000, 0.000, 09:18:01.793
108, 12.66, 0.00, 12.52, 11.71, 0.000, 0.000, 0.000, 09:18:01.793
109, 14.50, 0.00, 18.31, 14.85, 0.000, 0.000, 0.000, 09:18:01.808
110, 9.68, 0.00, 17.76, 13.03, 0.000, 0.000, 0.000, 09:18:01.808
111, 12.31, 0.00, 15.72, 13.77, 0.000, 0.000, 0.000, 09:18:01.822
112, 14.32, 0.00, 12.06, 16.24, 0.000, 0.000, 0.000, 09:18:01.823
113, 17.21, 0.00, 18.07, 17.53, 0.000, 0.000, 0.000, 09:18:01.825
114, 17.15, 0.00, 20.04, 20.92, 0.000, 0.000, 0.000, 09:18:01.825
115, 16.20, 0.00, 15.95, 15.28, 0.000, 0.000, 0.000, 09:18:01.837
116, 13.22, 0.00, 13.22, 8.17, 0.000, 0.000, 0.000, 09:18:01.837
117, 16.32, 0.00, 22.06, 21.00, 0.000, 0.000, 0.000, 09:18:01.852
118, 17.90, 0.00, 21.07, 20.77, 0.000, 0.000, 0.000, 09:18:01.852
119, 12.07, 0.00, 10.90, 14.08, 0.000, 0.000, 0.000, 09:18:01.853
120, 14.28, 0.00, 18.83, 16.91, 0.000, 0.000, 0.000, 09:18:01.853
121, 19.57, 0.00, 24.72, 19.50, 0.000, 0.000, 0.000, 09:18:01.875
122, 16.88, 0.00, 19.01, 15.22, 0.000, 0.000, 0.000, 09:18:01.875
123, 14.09, 0.00, 16.03, 18.76, 0.000, 0.000, 0.000, 09:18:01.882
124, 11.08, 0.00, 12.57, 15.05, 0.000, 0.000, 0.000, 09:18:01.883
125, 17.12, 0.00, 18.48, 14.80, 0.000, 0.000, 0.000, 09:18:01.883
126, 18.57, 0.00, 21.22, 21.76, 0.000, 0.000, 0.000, 09:18:01.883
127, 10.51, 0.00, 11.19, 13.56, 0.000, 0.000, 0.000, 09:18:01.898
128, 9.08, 0.00, 8.21, 10.75, 0.000, 0.000, 0.000, 09:18:01.898
129, 18.07, 0.00, 20.16, 19.21, 0.000, 0.000, 0.000, 09:18:01.913
130, 19.37, 0.00, 22.22, 18.58, 0.000, 0.000, 0.000, 09:18:01.913
131, 11.75, 0.00, 15.58, 9.16, 0.000, 0.000, 0.000, 09:18:01.914
132, 12.67, 0.00, 14.88, 9.56, 0.000, 0.000, 0.000, 09:18:01.914
133, 14.27, 0.00, 19.12, 19.19, 0.000, 0.000, 0.000, 09:18:01.927
134, 16.89, 0.00, 21.03, 14.79, 0.000, 0.000, 0.000, 09:18:01.928
135, 12.63, 0.00, 13.37, 13.96, 0.000, 0.000, 0.000, 09:18:01.942
136, 10.20, 0.00, 14.88, 15.49, 0.000, 0.000, 0.000, 09:18:01.942
137, 15.11, 0.00, 16.93, 18.29, 0.000, 0.000, 0.000, 09:18:01.943
138, 17.92, 0.00, 21.50, 17.14, 0.000, 0.000, 0.000, 09:18:01.943
139, 13.34, 0.00, 15.52, 16.68, 0.000, 0.000, 0.000, 09:18:01.959
140, 10.43, 0.00, 11.36, 7.58, 0.000, 0.000, 0.000, 09:18:01.960
141, 17.91, 0.00, 20.61, 17.82, 0.000, 0.000, 0.000, 09:18:01.973
142, 16.89, 0.00, 22.21, 19.77, 0.000, 0.000, 0.000, 09:18:01.974
143, 11.29, 0.00, 10.22, 10.23, 0.000, 0.000, 0.000, 09:18:01.975
144, 14.74, 0.00, 12.72, 14.42, 0.000, 0.000, 0.000, 09:18:01.975
145, 17.10, 0.00, 22.30, 15.92, 0.000, 0.000, 0.000, 09:18:01.987
146, 14.45, 0.00, 17.47, 14.21, 0.000, 0.000, 0.000, 09:18:01.987
147, 15.87, 0.00, 16.79, 18.08, 0.000, 0.000, 0.000, 09:18:02.002
148, 11.02, 0.00, 13.52, 17.22, 0.000, 0.000, 0.000, 09:18:02.002
149, 12.73, 0.00, 16.30, 17.91, 0.000, 0.000, 0.000, 09:18:02.003
150, 20.06, 0.00, 17.49, 20.47, 0.000, 0.000, 0.000, 09:18:02.003
151, 16.25, 0.00, 22.93, 14.92, 0.000, 0.000, 0.000, 09:18:02.017
152, 11.71, 0.00, 11.60, 3.78, 0.000, 0.000, 0.000, 09:18:02.017
153, 17.46, 0.00, 22.51, 21.38, 0.000, 0.000, 0.000, 09:18:02.032
154, 17.21, 0.00, 20.56, 18.69, 0.000, 0.000, 0.000, 09:18:02.032
155, 12.34, 0.00, 16.22, 11.44, 0.000, 0.000, 0.000, 09:18:02.033
156, 10.81, 0.00, 12.60, 9.43, 0.000, 0.000, 0.000, 09:18:02.033
157, 16.62, 0.00, 21.37, 19.14, 0.000, 0.000, 0.000, 09:18:02.046
158, 15.50, 0.00, 19.02, 17.91, 0.000, 0.000, 0.000, 09:18:02.047
159, 13.02, 0.00, 14.13, 16.72, 0.000, 0.000, 0.000, 09:18:02.062
160, 13.43, 0.00, 14.57, 16.02, 0.000, 0.000, 0.000, 09:18:02.063
161, 13.89, 0.00, 17.71, 18.18, 0.000, 0.000, 0.000, 09:18:02.063
162, 18.31, 0.00, 22.61, 16.03, 0.000, 0.000, 0.000, 09:18:02.063
163, 13.97, 0.00, 12.01, 16.56, 0.000, 0.000, 0.000, 09:18:02.077
164, 9.42, 0.00, 10.30, 12.53, 0.000, 0.000, 0.000, 09:18:02.078
165, 16.26, 0.00, 23.67, 22.75, 0.000, 0.000, 0.000, 09:18:02.091
166, 17.46, 0.00, 19.46, 20.31, 0.000, 0.000, 0.000, 09:18:02.091
167, 14.58, 0.00, 15.02, 12.92, 0.000, 0.000, 0.000, 09:18:02.092
168, 14.53, 0.00, 17.37, 16.37, 0.000, 0.000, 0.000, 09:18:02.092
169, 17.23, 0.00, 22.43, 20.37, 0.000, 0.000, 0.000, 09:18:02.107
170, 16.87, 0.00, 18.18, 15.25, 0.000, 0.000, 0.000, 09:18:02.107
171, 11.28, 0.00, 16.68, 19.85, 0.000, 0.000, 0.000, 09:18:02.121
172, 11.65, 0.00, 13.37, 12.85, 0.000, 0.000, 0.000, 09:18:02.121
173, 15.98, 0.00, 19.83, 16.67, 0.000, 0.000, 0.000, 09:18:02.122
174, 16.05, 0.00, 23.09, 17.88, 0.000, 0.000, 0.000, 09:18:02.124
175, 12.96, 0.00, 16.22, 14.84, 0.000, 0.000, 0.000, 09:18:02.137
176, 10.14, 0.00, 10.22, 8.71, 0.000, 0.000, 0.000, 09:18:02.137
177, 18.41, 0.00, 20.50, 20.75, 0.000, 0.000, 0.000, 09:18:02.152
178, 19.46, 0.00, 20.37, 20.98, 0.000, 0.000, 0.000, 09:18:02.152
179, 10.88, 0.00, 11.92, 11.99, 0.000, 0.000, 0.000, 09:18:02.153
180, 17.18, 0.00, 17.84, 10.58, 0.000, 0.000, 0.000, 09:18:02.153
181, 18.41, 0.00, 23.54, 15.44, 0.000, 0.000, 0.000, 09:18:02.167
182, 15.01, 0.00, 16.89, 15.16, 0.000, 0.000, 0.000, 09:18:02.167
183, 16.70, 0.00, 16.33, 17.41, 0.000, 0.000, 0.000, 09:18:02.182
184, 13.89, 0.00, 15.82, 11.96, 0.000, 0.000, 0.000, 09:18:02.182
185, 16.74, 0.00, 20.08, 18.11, 0.000, 0.000, 0.000, 09:18:02.183
186, 16.37, 0.00, 18.31, 20.43, 0.000, 0.000, 0.000, 09:18:02.183
187, 15.35, 0.00, 13.32, 15.77, 0.000, 0.000, 0.000, 09:18:02.197
188, 11.34, 0.00, 9.56, 8.45, 0.000, 0.000, 0.000, 09:18:02.197
189, 12.42, 0.00, 19.79, 18.53, 0.000, 0.000, 0.000, 09:18:02.212
190, 17.48, 0.00, 21.28, 21.38, 0.000, 0.000, 0.000, 09:18:02.212
191, 11.95, 0.00, 15.61, 11.35, 0.000, 0.000, 0.000, 09:18:02.212
192, 11.36, 0.00, 14.43, 13.60, 0.000, 0.000, 0.000, 09:18:02.212
193, 15.77, 0.00, 20.81, 19.21, 0.000, 0.000, 0.000, 09:18:02.228
194, 14.90, 0.00, 15.64, 16.77, 0.000, 0.000, 0.000, 09:18:02.229
195, 11.14, 0.00, 16.45, 19.34, 0.000, 0.000, 0.000, 09:18:02.243
196, 13.54, 0.00, 17.93, 16.04, 0.000, 0.000, 0.000, 09:18:02.244
197, 16.22, 0.00, 18.49, 16.88, 0.000, 0.000, 0.000, 09:18:02.244
198, 14.52, 0.00, 18.91, 14.84, 0.000, 0.000, 0.000, 09:18:02.244
199, 10.84, 0.00, 14.59, 14.45, 0.000, 0.000, 0.000, 09:18:02.257
200, 12.44, 0.00, 9.89, 10.26, 0.000, 0.000, 0.000, 09:18:02.258
0, 17.10, 0.00, 20.83, 18.75, 0.000, 0.000, 0.000, 09:18:02.258
1, 16.46, 0.00, 19.34, 17.08, 0.000, 0.000, 0.000, 09:18:02.272
2, 7.94, 0.00, 10.26, 10.72, 0.000, 0.000, 0.000, 09:18:02.273
3, 13.32, 0.00, 17.82, 19.21, 0.000, 0.000, 0.000, 09:18:02.287
4, 21.60, 0.00, 21.39, 18.26, 0.000, 0.000, 0.000, 09:18:02.288
5, 18.68, 0.00, 17.89, 13.55, 0.000, 0.000, 0.000, 09:18:02.288
6, 16.28, 0.00, 17.35, 16.56, 0.000, 0.000, 0.000, 09:18:02.288
7, 14.82, 0.00, 16.99, 12.88, 0.000, 0.000, 0.000, 09:18:02.302
8, 14.44, 0.00, 20.03, 14.09, 0.000, 0.000, 0.000, 09:18:02.302
9, 15.71, 0.00, 21.69, 18.28, 0.000, 0.000, 0.000, 09:18:02.317
10, 12.03, 0.00, 15.76, 11.20, 0.000, 0.000, 0.000, 09:18:02.317
11, 10.25, 0.00, 9.73, 10.23, 0.000, 0.000, 0.000, 09:18:02.317
12, 15.44, 0.00, 21.46, 20.90, 0.000, 0.000, 0.000, 09:18:02.318
13, 16.53, 0.00, 21.13, 19.20, 0.000, 0.000, 0.000, 09:18:02.332
14, 10.65, 0.00, 12.96, 8.16, 0.000, 0.000, 0.000, 09:18:02.332
