%OpenBCI Raw EEG Data
%
%Sample Rate = 200.0 Hz
%First Column = SampleIndex
%Last Column = Timestamp 
%Other Columns = EEG data in microvolts followed by Accel Data (in G) interleaved with Aux Data
0, 11.08, 13.37, 12.80, 12.65, 0.000, 0.000, 0.000, 14:46:51.444, L
1, 10.81, 7.33, -0.26, 9.84, 0.000, 0.000, 0.000, 14:46:51.459, L
2, 9.50, 9.95, 2.91, 11.83, 0.000, 0.000, 0.000, 14:46:51.460, L
3, 13.53, 15.21, 17.93, 18.10, 0.000, 0.000, 0.000, 14:46:51.473, L
4, 14.84, 12.16, 13.56, 10.51, 0.000, 0.000, 0.000, 14:46:51.474, L
5, 11.71, 4.69, 3.04, 9.99, 0.000, 0.000, 0.000, 14:46:51.474, L
6, 11.91, 10.34, 14.00, 12.60, 0.000, 0.000, 0.000, 14:46:51.475, L
7, 15.72, 18.92, 18.47, 18.73, 0.000, 0.000, 0.000, 14:46:51.487, L
8, 11.03, 15.14, 9.20, 16.92, 0.000, 0.000, 0.000, 14:46:51.490, L
9, 7.02, 5.02, 5.43, 3.32, 0.000, 0.000, 0.000, 14:46:51.501, L
10, 10.47, 9.41, 8.90, 9.86, 0.000, 0.000, 0.000, 14:46:51.502, L
11, 17.36, 16.78, 15.23, 21.55, 0.000, 0.000, 0.000, 14:46:51.503, L
12, 11.81, 12.01, 11.11, 16.52, 0.000, 0.000, 0.000, 14:46:51.504, L
13, 6.72, 5.15, 4.31, 8.33, 0.000, 0.000, 0.000, 14:46:51.517, L
14, 13.75, 14.99, 3.92, 10.01, 0.000, 0.000, 0.000, 14:46:51.518, L
15, 16.09, 18.10, 10.93, 22.86, 0.000, 0.000, 0.000, 14:46:51.531, L
16, 16.90, 14.26, 12.69, 14.76, 0.000, 0.000, 0.000, 14:46:51.532, L
17, 11.07, 9.41, -8.47, 7.90, 0.000, 0.000, 0.000, 14:46:51.532, L
18, 10.88, 11.99, 11.15, 11.70, 0.000, 0.000, 0.000, 14:46:51.533, L
19, 14.46, 18.71, 12.79, 16.68, 0.000, 0.000, 0.000, 14:46:51.546, L
20, 17.73, 12.32, 2.19, 18.54, 0.000, 0.000, 0.000, 14:46:51.547, L
21, 8.91, 4.94, 5.69, 7.58, 0.000, 0.000, 0.000, 14:46:51.562, L
22, 16.83, 12.91, 3.29, 9.68, 0.000, 0.000, 0.000, 14:46:51.563, L
23, 18.29, 17.30, 18.60, 22.62, 0.000, 0.000, 0.000, 14:46:51.563, L
24, 14.83, 11.59, 14.28, 16.25, 0.000, 0.000, 0.000, 14:46:51.563, L
25, 6.73, 6.22, 3.05, 4.47, 0.000, 0.000, 0.000, 14:46:51.576, L
26, 8.83, 10.35, -0.47, 13.70, 0.000, 0.000, 0.000, 14:46:51.577, L
27, 13.05, 13.72, 14.22, 19.33, 0.000, 0.000, 0.000, 14:46:51.591, L
28, 10.90, 11.62, 7.20, 12.25, 0.000, 0.000, 0.000, 14:46:51.592, L
29, 3.20, 4.77, 9.37, 5.73, 0.000, 0.000, 0.000, 14:46:51.592, L
30, 10.55, 8.59, 12.16, 10.70, 0.000, 0.000, 0.000, 14:46:51.593, L
31, 16.87, 20.24, 13.96, 20.54, 0.000, 0.000, 0.000, 14:46:51.613, L
32, 13.63, 14.27, 3.24, 15.63, 0.000, 0.000, 0.000, 14:46:51.613, L
33, 9.71, 10.23, -0.76, 9.35, 0.000, 0.000, 0.000, 14:46:51.625, L
34, 7.91, 7.99, -0.76, 15.12, 0.000, 0.000, 0.000, 14:46:51.626, L
35, 12.06, 14.04, 3.17, 19.51, 0.000, 0.000, 0.000, 14:46:51.637, L
36, 13.09, 12.69, 15.99, 16.73, 0.000, 0.000, 0.000, 14:46:51.638, L
37, 7.87, 7.45, 7.12, 8.44, 0.000, 0.000, 0.000, 14:46:51.640, L
38, 10.06, 10.51, 14.88, 8.38, 0.000, 0.000, 0.000, 14:46:51.641, L
39, 21.04, 20.10, 13.66, 17.33, 0.000, 0.000, 0.000, 14:46:51.652, L
40, 9.96, 11.78, 8.15, 13.92, 0.000, 0.000, 0.000, 14:46:51.652, L
41, 10.64, 6.46, 2.81, 10.21, 0.000, 0.000, 0.000, 14:46:51.656, L
42, 10.20, 9.72, -1.16, 6.34, 0.000, 0.000, 0.000, 14:46:51.656, L
43, 18.42, 19.26, 14.77, 20.70, 0.000, 0.000, 0.000, 14:46:51.667, L
44, 14.04, 14.96, 22.88, 13.86, 0.000, 0.000, 0.000, 14:46:51.667, L
45, 5.88, 7.99, 6.47, 5.14, 0.000, 0.000, 0.000, 14:46:51.681, L
46, 10.34, 7.79, 11.08, 7.64, 0.000, 0.000, 0.000, 14:46:51.682, L
47, 14.81, 17.10, 17.90, 20.06, 0.000, 0.000, 0.000, 14:46:51.682, L
48, 12.83, 12.36, 11.63, 14.91, 0.000, 0.000, 0.000, 14:46:51.682, L
49, 8.21, 2.91, -2.20, 8.21, 0.000, 0.000, 0.000, 14:46:51.697, L
50, 12.40, 10.30, 10.93, 10.91, 0.000, 0.000, 0.000, 14:46:51.698, L
51, 16.43, 17.07, 18.13, 21.98, 0.000, 0.000, 0.000, 14:46:51.714, L
52, 10.70, 15.21, 10.03, 15.76, 0.000, 0.000, 0.000, 14:46:51.715, L
53, 8.76, 8.19, 4.63, 7.40, 0.000, 0.000, 0.000, 14:46:51.716, L
54, 11.69, 11.97, -1.72, 11.22, 0.000, 0.000, 0.000, 14:46:51.717, L
55, 17.32, 17.82, 14.35, 22.90, 0.000, 0.000, 0.000, 14:46:51.726, L
56, 14.55, 12.65, 4.28, 9.24, 0.000, 0.000, 0.000, 14:46:51.727, L
57, 9.46, 5.58, 11.55, 10.96, 0.000, 0.000, 0.000, 14:46:51.741, L
58, 10.24, 9.31, 8.26, 13.39, 0.000, 0.000, 0.000, 14:46:51.742, L
59, 16.84, 18.35, 16.47, 21.15, 0.000, 0.000, 0.000, 14:46:51.742, L
60, 12.67, 10.91, 4.46, 12.31, 0.000, 0.000, 0.000, 14:46:51.742, L
61, 5.77, 6.24, 3.24, 10.05, 0.000, 0.000, 0.000, 14:46:51.757, L
62, 10.79, 11.98, 12.13, 11.97, 0.000, 0.000, 0.000, 14:46:51.758, L
63, 20.18, 19.26, 18.74, 24.78, 0.000, 0.000, 0.000, 14:46:51.774, L
64, 12.70, 14.26, 13.82, 11.85, 0.000, 0.000, 0.000, 14:46:51.774, L
65, 12.99, 7.65, 0.56, 8.17, 0.000, 0.000, 0.000, 14:46:51.775, L
66, 8.59, 11.21, 14.23, 12.21, 0.000, 0.000, 0.000, 14:46:51.775, L
67, 19.41, 15.01, 10.99, 22.40, 0.000, 0.000, 0.000, 14:46:51.788, L
68, 13.22, 10.12, 10.15, 18.41, 0.000, 0.000, 0.000, 14:46:51.790, L
69, 7.89, 7.51, 10.14, 5.77, 0.000, 0.000, 0.000, 14:46:51.801, L
70, 10.63, 10.19, 2.38, 9.60, 0.000, 0.000, 0.000, 14:46:51.802, L
71, 16.99, 19.95, 8.02, 20.24, 0.000, 0.000, 0.000, 14:46:51.803, L
72, 18.21, 11.67, 12.13, 12.78, 0.000, 0.000, 0.000, 14:46:51.804, L
73, 7.08, 7.42, 3.48, 8.51, 0.000, 0.000, 0.000, 14:46:51.816, L
74, 11.20, 15.32, 13.66, 13.52, 0.000, 0.000, 0.000, 14:46:51.817, L
75, 17.49, 17.99, 8.77, 20.96, 0.000, 0.000, 0.000, 14:46:51.831, L
76, 14.84, 10.91, 10.44, 13.03, 0.000, 0.000, 0.000, 14:46:51.831, L
77, 8.29, 8.11, 11.22, 12.79, 0.000, 0.000, 0.000, 14:46:51.832, L
78, 8.10, 9.90, 2.56, 10.54, 0.000, 0.000, 0.000, 14:46:51.832, L
79, 16.42, 15.48, 14.48, 17.05, 0.000, 0.000, 0.000, 14:46:51.846, L
80, 12.94, 10.76, 7.80, 14.45, 0.000, 0.000, 0.000, 14:46:51.847, L
81, 9.76, 7.54, 2.83, 5.57, 0.000, 0.000, 0.000, 14:46:51.862, L
82, 12.95, 13.27, -0.50, 10.69, 0.000, 0.000, 0.000, 14:46:51.862, L
83, 19.74, 19.33, 15.99, 21.06, 0.000, 0.000, 0.000, 14:46:51.862, L
84, 13.01, 14.41, 11.18, 14.25, 0.000, 0.000, 0.000, 14:46:51.863, L
85, 6.62, 7.22, 1.60, 8.16, 0.000, 0.000, 0.000, 14:46:51.876, L
86, 8.94, 8.29, 4.19, 10.08, 0.000, 0.000, 0.000, 14:46:51.877, L
87, 15.39, 17.82, 17.15, 15.75, 0.000, 0.000, 0.000, 14:46:51.891, L
88, 12.87, 15.52, 10.09, 15.97, 0.000, 0.000, 0.000, 14:46:51.891, L
89, 7.54, 7.53, -4.29, 8.70, 0.000, 0.000, 0.000, 14:46:51.892, L
90, 13.58, 11.69, 5.65, 7.27, 0.000, 0.000, 0.000, 14:46:51.892, L
91, 15.04, 15.97, 17.81, 21.61, 0.000, 0.000, 0.000, 14:46:51.907, L
92, 14.43, 13.18, 3.68, 16.12, 0.000, 0.000, 0.000, 14:46:51.908, L
93, 6.61, 8.65, -3.04, 10.04, 0.000, 0.000, 0.000, 14:46:51.923, L
94, 10.77, 11.42, 15.57, 16.60, 0.000, 0.000, 0.000, 14:46:51.923, L
95, 15.06, 19.13, 16.26, 16.81, 0.000, 0.000, 0.000, 14:46:51.926, L
96, 10.68, 11.33, 9.72, 13.74, 0.000, 0.000, 0.000, 14:46:51.926, L
97, 9.34, 5.31, 5.54, 7.06, 0.000, 0.000, 0.000, 14:46:51.938, L
98, 13.04, 7.53, -2.12, 13.38, 0.000, 0.000, 0.000, 14:46:51.939, L
99, 18.63, 18.67, 15.85, 22.02, 0.000, 0.000, 0.000, 14:46:51.951, L
100, 13.63, 14.16, 8.82, 16.51, 0.000, 0.000, 0.000, 14:46:51.952, L
101, 11.01, 9.46, 7.43, 6.27, 0.000, 0.000, 0.000, 14:46:51.952, L
102, 7.01, 11.51, 15.45, 14.57, 0.000, 0.000, 0.000, 14:46:51.953, L
103, 18.56, 16.37, 21.58, 17.86, 0.000, 0.000, 0.000, 14:46:51.981, L
104, 13.83, 14.20, 6.28, 15.80, 0.000, 0.000, 0.000, 14:46:51.982, L
105, 8.91, 5.16, -0.05, 4.04, 0.000, 0.000, 0.000, 14:46:51.982, L
106, 13.91, 8.90, 7.20, 10.23, 0.000, 0.000, 0.000, 14:46:51.982, L
107, 14.67, 16.58, 16.37, 16.42, 0.000, 0.000, 0.000, 14:46:51.982, L
108, 13.11, 11.18, 2.95, 13.16, 0.000, 0.000, 0.000, 14:46:51.983, L
109, 10.91, 7.41, 4.69, 7.45, 0.000, 0.000, 0.000, 14:46:51.996, L
110, 14.18, 12.50, 8.73, 14.01, 0.000, 0.000, 0.000, 14:46:51.997, L
111, 15.40, 16.68, 18.42, 17.08, 0.000, 0.000, 0.000, 14:46:52.011, L
112, 13.56, 12.23, 5.36, 11.18, 0.000, 0.000, 0.000, 14:46:52.012, L
113, 12.25, 10.45, 6.05, 9.86, 0.000, 0.000, 0.000, 14:46:52.012, L
114, 10.85, 11.73, 4.48, 13.14, 0.000, 0.000, 0.000, 14:46:52.012, L
115, 15.68, 15.43, 16.17, 20.97, 0.000, 0.000, 0.000, 14:46:52.026, L
116, 12.15, 14.29, 10.18, 10.33, 0.000, 0.000, 0.000, 14:46:52.027, L
117, 10.69, 5.47, 7.72, 8.19, 0.000, 0.000, 0.000, 14:46:52.041, L
118, 7.88, 8.27, 6.90, 13.88, 0.000, 0.000, 0.000, 14:46:52.042, L
119, 20.73, 21.44, 17.58, 24.28, 0.000, 0.000, 0.000, 14:46:52.043, L
120, 19.43, 17.60, 15.95, 17.09, 0.000, 0.000, 0.000, 14:46:52.044, L
121, 10.02, 6.61, 0.48, 7.78, 0.000, 0.000, 0.000, 14:46:52.059, L
122, 10.52, 11.72, 5.59, 9.15, 0.000, 0.000, 0.000, 14:46:52.059, L
123, 17.54, 21.06, 17.05, 20.14, 0.000, 0.000, 0.000, 14:46:52.074, L
124, 10.52, 11.02, 4.59, 12.93, 0.000, 0.000, 0.000, 14:46:52.074, L
125, 10.57, 6.60, 2.24, 7.52, 0.000, 0.000, 0.000, 14:46:52.074, L
126, 10.67, 9.76, 6.13, 11.23, 0.000, 0.000, 0.000, 14:46:52.075, L
127, 16.76, 16.71, 12.30, 20.82, 0.000, 0.000, 0.000, 14:46:52.089, L
128, 14.36, 11.49, 7.91, 12.94, 0.000, 0.000, 0.000, 14:46:52.091, L
129, 4.87, 7.29, -0.85, 10.62, 0.000, 0.000, 0.000, 14:46:52.101, L
130, 16.42, 8.84, 7.69, 7.82, 0.000, 0.000, 0.000, 14:46:52.101, L
131, 18.52, 18.56, 14.32, 19.43, 0.000, 0.000, 0.000, 14:46:52.102, L
132, 14.74, 11.64, 13.02, 17.74, 0.000, 0.000, 0.000, 14:46:52.102, L
133, 5.53, 5.22, -3.45, 4.64, 0.000, 0.000, 0.000, 14:46:52.116, L
134, 11.83, 13.55, 5.36, 13.09, 0.000, 0.000, 0.000, 14:46:52.117, L
135, 12.37, 16.12, 13.69, 16.78, 0.000, 0.000, 0.000, 14:46:52.131, L
136, 11.53, 9.61, 11.11, 8.60, 0.000, 0.000, 0.000, 14:46:52.132, L
137, 9.85, 3.73, 1.41, 9.01, 0.000, 0.000, 0.000, 14:46:52.132, L
138, 11.36, 10.02, 10.54, 10.26, 0.000, 0.000, 0.000, 14:46:52.132, L
139, 15.46, 17.04, 14.89, 21.01, 0.000, 0.000, 0.000, 14:46:52.146, L
140, 16.86, 15.35, 11.12, 15.62, 0.000, 0.000, 0.000, 14:46:52.146, L
141, 11.62, 6.20, 4.52, 8.43, 0.000, 0.000, 0.000, 14:46:52.161, L
142, 6.99, 10.31, 5.24, 8.37, 0.000, 0.000, 0.000, 14:46:52.162, L
143, 17.96, 16.38, 19.63, 18.12, 0.000, 0.000, 0.000, 14:46:52.162, L
144, 14.63, 16.58, 9.88, 12.43, 0.000, 0.000, 0.000, 14:46:52.162, L
145, 6.68, 4.18, -3.82, 9.86, 0.000, 0.000, 0.000, 14:46:52.191, L
146, 10.84, 8.14, 4.49, 15.47, 0.000, 0.000, 0.000, 14:46:52.192, L
147, 15.83, 15.62, 18.85, 20.60, 0.000, 0.000, 0.000, 14:46:52.192, L
148, 14.80, 14.09, 16.46, 18.82, 0.000, 0.000, 0.000, 14:46:52.192, L
149, 7.66, 8.76, 4.27, 7.00, 0.000, 0.000, 0.000, 14:46:52.192, L
150, 8.27, 13.20, 1.00, 9.10, 0.000, 0.000, 0.000, 14:46:52.192, L
151, 19.08, 18.71, 3.89, 20.12, 0.000, 0.000, 0.000, 14:46:52.207, L
152, 15.32, 11.93, 9.59, 15.40, 0.000, 0.000, 0.000, 14:46:52.207, L
153, 8.41, 5.78, 8.82, 4.03, 0.000, 0.000, 0.000, 14:46:52.221, L
154, 13.60, 7.98, 1.93, 13.11, 0.000, 0.000, 0.000, 14:46:52.223, L
155, 13.20, 14.67, 15.34, 17.21, 0.000, 0.000, 0.000, 14:46:52.223, L
156, 14.51, 13.91, 12.46, 16.95, 0.000, 0.000, 0.000, 14:46:52.224, L
157, 9.19, 9.05, 2.29, 9.76, 0.000, 0.000, 0.000, 14:46:52.238, L
158, 5.67, 6.76, 1.97, 13.60, 0.000, 0.000, 0.000, 14:46:52.238, L
159, 18.01, 22.40, 14.26, 21.17, 0.000, 0.000, 0.000, 14:46:52.251, L
160, 15.69, 12.56, 9.48, 9.89, 0.000, 0.000, 0.000, 14:46:52.252, L
161, 3.22, 7.87, 6.73, 8.89, 0.000, 0.000, 0.000, 14:46:52.252, L
162, 5.72, 8.95, 1.32, 12.40, 0.000, 0.000, 0.000, 14:46:52.252, L
163, 15.78, 19.02, 14.32, 22.22, 0.000, 0.000, 0.000, 14:46:52.266, L
164, 14.87, 13.80, 18.07, 17.92, 0.000, 0.000, 0.000, 14:46:52.267, L
165, 8.75, 9.69, 5.45, 6.93, 0.000, 0.000, 0.000, 14:46:52.282, L
166, 10.42, 9.74, 2.57, 15.04, 0.000, 0.000, 0.000, 14:46:52.282, L
167, 12.53, 17.30, 13.09, 19.52, 0.000, 0.000, 0.000, 14:46:52.282, L
168, 14.73, 11.87, 4.64, 13.73, 0.000, 0.000, 0.000, 14:46:52.282, L
169, 9.96, 6.91, 2.47, 8.76, 0.000, 0.000, 0.000, 14:46:52.311, L
170, 14.90, 13.50, 4.90, 10.78, 0.000, 0.000, 0.000, 14:46:52.312, L
171, 16.58, 16.86, 10.47, 23.93, 0.000, 0.000, 0.000, 14:46:52.312, L
172, 13.33, 10.94, 5.16, 12.30, 0.000, 0.000, 0.000, 14:46:52.312, L
173, 5.53, 3.02, 1.26, 5.37, 0.000, 0.000, 0.000, 14:46:52.313, L
174, 13.79, 13.85, 9.38, 14.60, 0.000, 0.000, 0.000, 14:46:52.313, L
175, 14.59, 17.75, 17.09, 23.44, 0.000, 0.000, 0.000, 14:46:52.333, L
176, 13.89, 16.05, 6.60, 11.43, 0.000, 0.000, 0.000, 14:46:52.333, L
177, 10.31, 7.10, 12.58, 9.61, 0.000, 0.000, 0.000, 14:46:52.341, L
178, 9.76, 9.00, 10.67, 8.57, 0.000, 0.000, 0.000, 14:46:52.341, L
179, 15.46, 16.03, 13.65, 15.84, 0.000, 0.000, 0.000, 14:46:52.342, L
180, 14.08, 14.17, 9.17, 14.36, 0.000, 0.000, 0.000, 14:46:52.342, L
181, 7.21, 6.26, 7.29, 4.78, 0.000, 0.000, 0.000, 14:46:52.358, L
182, 9.92, 9.81, 12.52, 11.22, 0.000, 0.000, 0.000, 14:46:52.358, L
183, 16.23, 20.02, 12.19, 19.01, 0.000, 0.000, 0.000, 14:46:52.371, L
184, 12.85, 7.27, 12.42, 11.71, 0.000, 0.000, 0.000, 14:46:52.372, L
185, 5.05, 3.52, -0.76, 3.72, 0.000, 0.000, 0.000, 14:46:52.374, L
186, 10.62, 9.57, 13.27, 12.64, 0.000, 0.000, 0.000, 14:46:52.374, L
187, 17.30, 20.23, 11.19, 17.89, 0.000, 0.000, 0.000, 14:46:52.387, L
188, 12.49, 13.72, 8.13, 12.51, 0.000, 0.000, 0.000, 14:46:52.388, L
189, 10.65, 10.35, 3.29, 6.09, 0.000, 0.000, 0.000, 14:46:52.401, L
190, 8.58, 7.57, -5.95, 11.75, 0.000, 0.000, 0.000, 14:46:52.402, L
191, 17.99, 16.75, 13.42, 19.41, 0.000, 0.000, 0.000, 14:46:52.402, L
192, 13.24, 15.01, 14.20, 15.56, 0.000, 0.000, 0.000, 14:46:52.402, L
193, 6.55, 8.33, 0.32, 9.39, 0.000, 0.000, 0.000, 14:46:52.416, L
194, 11.53, 9.72, 1.90, 14.28, 0.000, 0.000, 0.000, 14:46:52.417, L
195, 13.19, 18.18, 11.80, 18.85, 0.000, 0.000, 0.000, 14:46:52.431, L
196, 11.31, 14.26, 17.47, 11.14, 0.000, 0.000, 0.000, 14:46:52.432, L
197, 13.40, 7.35, 1.44, 9.19, 0.000, 0.000, 0.000, 14:46:52.432, L
198, 12.60, 12.51, 9.91, 16.29, 0.000, 0.000, 0.000, 14:46:52.432, L
199, 16.42, 16.33, 14.28, 20.06, 0.000, 0.000, 0.000, 14:46:52.446, L
200, 10.22, 13.24, 7.75, 15.61, 0.000, 0.000, 0.000, 14:46:52.447, L
0, 10.81, 0.70, 0.27, 3.83, 0.000, 0.000, 0.000, 14:46:52.447, L
1, 11.11, 9.27, 8.88, 14.71, 0.000, 0.000, 0.000, 14:46:52.461, L
2, 11.65, 17.51, 19.17, 21.24, 0.000, 0.000, 0.000, 14:46:52.462, L
3, 11.15, 12.43, 8.55, 10.18, 0.000, 0.000, 0.000, 14:46:52.476, L
4, 9.17, 10.87, 10.62, 3.82, 0.000, 0.000, 0.000, 14:46:52.477, L
5, 11.74, 11.01, 3.83, 10.57, 0.000, 0.000, 0.000, 14:46:52.477, L
6, 20.06, 18.02, 11.06, 21.19, 0.000, 0.000, 0.000, 14:46:52.477, L
7, 11.57, 11.78, 16.60, 16.19, 0.000, 0.000, 0.000, 14:46:52.492, L
8, 10.36, 8.00, 4.08, 6.55, 0.000, 0.000, 0.000, 14:46:52.492, L
9, 10.44, 13.36, 4.94, 12.03, 0.000, 0.000, 0.000, 14:46:52.510, L
10, 18.26, 15.43, 12.13, 19.87, 0.000, 0.000, 0.000, 14:46:52.510, L
11, 16.52, 13.76, 14.62, 17.93, 0.000, 0.000, 0.000, 14:46:52.510, L
12, 10.09, 6.06, 2.33, 6.98, 0.000, 0.000, 0.000, 14:46:52.510, L
13, 14.54, 9.04, 3.72, 11.50, 0.000, 0.000, 0.000, 14:46:52.521, L
14, 17.21, 18.05, 13.13, 20.40, 0.000, 0.000, 0.000, 14:46:52.522, L
15, 12.14, 8.78, 9.16, 15.35, 0.000, 0.000, 0.000, 14:46:52.537, L
16, 3.69, 10.21, 0.83, 3.90, 0.000, 0.000, 0.000, 14:46:52.538, L
17, 15.69, 13.39, 12.14, 11.18, 0.000, 0.000, 0.000, 14:46:52.538, L
18, 18.65, 19.00, 16.31, 20.58, 0.000, 0.000, 0.000, 14:46:52.539, L
19, 12.12, 10.35, 13.27, 15.37, 0.000, 0.000, 0.000, 14:46:52.551, L
20, 10.20, 9.36, 7.67, 8.36, 0.000, 0.000, 0.000, 14:46:52.551, L
21, 11.62, 11.31, -1.08, 12.70, 0.000, 0.000, 0.000, 14:46:52.566, L
22, 18.02, 18.54, 19.05, 19.17, 0.000, 0.000, 0.000, 14:46:52.567, L
23, 6.77, 12.03, 1.15, 11.90, 0.000, 0.000, 0.000, 14:46:52.567, L
24, 9.56, 5.78, -3.45, 9.26, 0.000, 0.000, 0.000, 14:46:52.567, L
25, 12.97, 8.75, 11.10, 15.31, 0.000, 0.000, 0.000, 14:46:52.581, L
26, 19.14, 19.19, 21.05, 18.65, 0.000, 0.000, 0.000, 14:46:52.582, L
27, 13.49, 9.22, 8.75, 15.83, 0.000, 0.000, 0.000, 14:46:52.596, L
28, 9.15, 7.81, 3.88, 8.01, 0.000, 0.000, 0.000, 14:46:52.597, L
29, 8.80, 10.81, 6.22, 13.76, 0.000, 0.000, 0.000, 14:46:52.597, L
30, 13.75, 18.23, 3.63, 21.87, 0.000, 0.000, 0.000, 14:46:52.597, L
31, 8.47, 12.90, -4.96, 10.06, 0.000, 0.000, 0.000, 14:46:52.611, L
32, 7.48, 7.35, 5.40, 5.89, 0.000, 0.000, 0.000, 14:46:52.611, L
33, 14.90, 10.32, 7.85, 13.16, 0.000, 0.000, 0.000, 14:46:52.626, L
34, 18.61, 20.43, 15.77, 16.79, 0.000, 0.000, 0.000, 14:46:52.627, L
35, 14.09, 14.28, 8.44, 17.26, 0.000, 0.000, 0.000, 14:46:52.627, L
36, 7.00, 4.25, 6.03, 5.22, 0.000, 0.000, 0.000, 14:46:52.627, L
37, 10.08, 9.81, 15.32, 12.20, 0.000, 0.000, 0.000, 14:46:52.641, L
38, 17.92, 20.08, 15.43, 21.45, 0.000, 0.000, 0.000, 14:46:52.641, L
39, 14.83, 13.76, 16.55, 15.25, 0.000, 0.000, 0.000, 14:46:52.658, L
40, 6.61, 6.70, 2.05, 10.14, 0.000, 0.000, 0.000, 14:46:52.659, L
41, 10.08, 10.66, 11.39, 12.75, 0.000, 0.000, 0.000, 14:46:52.664, L
42, 15.09, 17.32, 15.58, 16.97, 0.000, 0.000, 0.000, 14:46:52.664, L
43, 18.21, 15.03, 15.63, 15.85, 0.000, 0.000, 0.000, 14:46:52.672, L
44, 10.29, 6.17, 3.84, 7.74, 0.000, 0.000, 0.000, 14:46:52.673, L
45, 14.47, 12.99, 11.75, 14.02, 0.000, 0.000, 0.000, 14:46:52.701, L
46, 16.04, 18.40, 15.94, 22.04, 0.000, 0.000, 0.000, 14:46:52.702, L
47, 12.20, 11.31, 11.20, 14.33, 0.000, 0.000, 0.000, 14:46:52.702, L
48, 4.85, 3.13, -3.57, 3.95, 0.000, 0.000, 0.000, 14:46:52.704, L
49, 5.68, 11.85, 10.34, 11.06, 0.000, 0.000, 0.000, 14:46:52.705, L
50, 16.98, 18.14, 16.88, 23.37, 0.000, 0.000, 0.000, 14:46:52.706, L
51, 12.18, 9.04, 3.90, 14.99, 0.000, 0.000, 0.000, 14:46:52.708, L
52, 8.30, 5.80, 1.98, 8.84, 0.000, 0.000, 0.000, 14:46:52.708, L
53, 15.44, 8.84, 8.48, 10.56, 0.000, 0.000, 0.000, 14:46:52.716, L
54, 17.13, 16.01, 18.82, 17.41, 0.000, 0.000, 0.000, 14:46:52.717, L
55, 7.62, 13.16, 16.31, 10.02, 0.000, 0.000, 0.000, 14:46:52.746, L
56, 7.54, 5.58, 8.73, 7.20, 0.000, 0.000, 0.000, 14:46:52.747, L
57, 6.41, 10.43, 3.65, 16.03, 0.000, 0.000, 0.000, 14:46:52.747, L
58, 21.41, 18.95, 12.76, 16.23, 0.000, 0.000, 0.000, 14:46:52.747, L
59, 9.77, 12.17, 4.52, 15.63, 0.000, 0.000, 0.000, 14:46:52.749, L
60, 8.69, 5.09, 8.94, 9.53, 0.000, 0.000, 0.000, 14:46:52.750, L
61, 10.63, 8.87, 0.70, 10.28, 0.000, 0.000, 0.000, 14:46:52.761, L
62, 18.14, 18.29, 16.68, 17.30, 0.000, 0.000, 0.000, 14:46:52.762, L
63, 10.71, 10.68, 8.60, 15.37, 0.000, 0.000, 0.000, 14:46:52.776, L
64, 11.31, 6.51, 6.14, 7.99, 0.000, 0.000, 0.000, 14:46:52.776, L
65, 16.80, 11.59, 16.85, 11.22, 0.000, 0.000, 0.000, 14:46:52.777, L
66, 18.00, 18.63, 4.32, 18.10, 0.000, 0.000, 0.000, 14:46:52.777, L
67, 10.00, 13.70, 7.87, 11.22, 0.000, 0.000, 0.000, 14:46:52.791, L
68, 9.33, 10.29, 1.34, 12.08, 0.000, 0.000, 0.000, 14:46:52.792, L
69, 12.40, 15.34, 13.69, 12.47, 0.000, 0.000, 0.000, 14:46:52.807, L
70, 16.70, 19.45, 14.41, 20.62, 0.000, 0.000, 0.000, 14:46:52.807, L
71, 15.73, 12.18, 9.70, 13.78, 0.000, 0.000, 0.000, 14:46:52.808, L
72, 8.69, 7.89, 12.28, 2.33, 0.000, 0.000, 0.000, 14:46:52.808, L
73, 11.34, 11.93, 3.33, 13.21, 0.000, 0.000, 0.000, 14:46:52.821, L
74, 12.80, 16.36, 5.62, 16.55, 0.000, 0.000, 0.000, 14:46:52.822, L
75, 11.92, 9.86, 4.56, 13.24, 0.000, 0.000, 0.000, 14:46:52.837, L
76, 6.49, 5.66, 5.27, 4.82, 0.000, 0.000, 0.000, 14:46:52.837, L
77, 12.22, 13.89, 2.17, 13.06, 0.000, 0.000, 0.000, 14:46:52.837, L
78, 17.08, 16.74, 14.10, 16.29, 0.000, 0.000, 0.000, 14:46:52.837, L
79, 15.11, 11.49, 6.53, 13.00, 0.000, 0.000, 0.000, 14:46:52.851, L
80, 7.15, 6.71, 10.98, 8.01, 0.000, 0.000, 0.000, 14:46:52.851, L
81, 13.28, 9.86, 9.02, 11.64, 0.000, 0.000, 0.000, 14:46:52.866, L
82, 16.29, 17.34, 5.12, 19.77, 0.000, 0.000, 0.000, 14:46:52.867, L
83, 6.87, 10.71, 3.51, 15.32, 0.000, 0.000, 0.000, 14:46:52.867, L
84, 4.96, 6.94, 8.24, 11.78, 0.000, 0.000, 0.000, 14:46:52.867, L
85, 12.22, 15.43, 5.68, 13.88, 0.000, 0.000, 0.000, 14:46:52.881, L
86, 16.37, 16.42, 14.02, 20.83, 0.000, 0.000, 0.000, 14:46:52.882, L
87, 10.51, 10.91, 14.56, 12.47, 0.000, 0.000, 0.000, 14:46:52.896, L
88, 5.48, 5.75, 6.20, 7.60, 0.000, 0.000, 0.000, 14:46:52.897, L
89, 10.14, 11.47, -0.64, 11.12, 0.000, 0.000, 0.000, 14:46:52.897, L
90, 13.85, 15.12, 14.99, 17.87, 0.000, 0.000, 0.000, 14:46:52.897, L
91, 9.81, 10.75, -2.60, 14.47, 0.000, 0.000, 0.000, 14:46:52.911, L
92, 8.12, 3.20, 2.94, 6.70, 0.000, 0.000, 0.000, 14:46:52.911, L
93, 13.98, 11.53, 8.43, 14.07, 0.000, 0.000, 0.000, 14:46:52.926, L
94, 19.26, 14.68, 18.91, 17.50, 0.000, 0.000, 0.000, 14:46:52.926, L
95, 10.67, 12.16, 8.55, 14.12, 0.000, 0.000, 0.000, 14:46:52.927, L
96, 5.64, 7.95, 8.30, 6.09, 0.000, 0.000, 0.000, 14:46:52.927, L
97, 13.00, 14.84, 7.60, 14.49, 0.000, 0.000, 0.000, 14:46:52.941, L
98, 19.11, 19.05, 17.64, 23.37, 0.000, 0.000, 0.000, 14:46:52.941, L
99, 13.97, 13.46, 11.30, 15.08, 0.000, 0.000, 0.000, 14:46:52.958, L
100, 11.13, 4.30, 5.30, 8.90, 0.000, 0.000, 0.000, 14:46:52.958, L
101, 8.66, 10.42, 3.58, 12.92, 0.000, 0.000, 0.000, 14:46:52.958, L
102, 16.29, 17.76, 13.96, 20.82, 0.000, 0.000, 0.000, 14:46:52.958, L
103, 15.71, 13.19, 11.65, 11.27, 0.000, 0.000, 0.000, 14:46:52.971, L
104, 8.21, 2.00, -0.42, 7.48, 0.000, 0.000, 0.000, 14:46:52.971, L
105, 13.40, 14.25, 12.97, 11.91, 0.000, 0.000, 0.000, 14:46:52.987, L
106, 13.42, 12.97, 14.36, 14.63, 0.000, 0.000, 0.000, 14:46:52.988, L
107, 10.40, 8.73, 17.07, 11.59, 0.000, 0.000, 0.000, 14:46:52.988, L
108, 7.41, 9.93, 12.74, 7.39, 0.000, 0.000, 0.000, 14:46:52.989, L
109, 11.91, 12.43, 12.11, 17.03, 0.000, 0.000, 0.000, 14:46:53.001, L
110, 19.52, 20.25, 14.09, 18.97, 0.000, 0.000, 0.000, 14:46:53.001, L
111, 13.92, 15.52, -1.38, 13.38, 0.000, 0.000, 0.000, 14:46:53.016, L
112, 11.97, 10.92, 7.42, 8.52, 0.000, 0.000, 0.000, 14:46:53.016, L
113, 9.29, 12.15, 12.15, 12.24, 0.000, 0.000, 0.000, 14:46:53.017, L
114, 18.32, 16.41, 13.69, 23.67, 0.000, 0.000, 0.000, 14:46:53.017, L
115, 14.36, 9.33, 9.11, 12.11, 0.000, 0.000, 0.000, 14:46:53.032, L
116, 4.52, 4.68, -2.94, 8.04, 0.000, 0.000, 0.000, 14:46:53.032, L
117, 12.61, 12.36, 4.30, 13.30, 0.000, 0.000, 0.000, 14:46:53.046, L
118, 15.01, 18.30, 20.30, 17.58, 0.000, 0.000, 0.000, 14:46:53.046, L
119, 14.13, 15.94, 4.93, 12.68, 0.000, 0.000, 0.000, 14:46:53.047, L
120, 11.94, 5.87, 2.93, 7.99, 0.000, 0.000, 0.000, 14:46:53.047, L
121, 11.21, 12.78, 8.68, 13.19, 0.000, 0.000, 0.000, 14:46:53.062, L
122, 18.59, 18.37, 8.12, 22.97, 0.000, 0.000, 0.000, 14:46:53.062, L
123, 7.95, 12.00, 12.37, 15.25, 0.000, 0.000, 0.000, 14:46:53.078, L
124, 7.84, 10.36, 10.43, 9.29, 0.000, 0.000, 0.000, 14:46:53.078, L
125, 13.28, 15.17, 15.52, 14.57, 0.000, 0.000, 0.000, 14:46:53.092, L
126, 16.41, 16.41, 10.27, 19.19, 0.000, 0.000, 0.000, 14:46:53.092, L
127, 14.79, 11.77, 6.84, 14.71, 0.000, 0.000, 0.000, 14:46:53.092, L
128, 11.82, 7.01, 5.98, 9.03, 0.000, 0.000, 0.000, 14:46:53.092, L
129, 8.11, 12.04, 15.78, 13.67, 0.000, 0.000, 0.000, 14:46:53.107, L
130, 15.45, 18.26, 13.22, 20.08, 0.000, 0.000, 0.000, 14:46:53.107, L
131, 14.50, 11.69, 3.59, 11.72, 0.000, 0.000, 0.000, 14:46:53.107, L
132, 9.47, 3.56, 7.57, 12.83, 0.000, 0.000, 0.000, 14:46:53.107, L
133, 12.81, 13.66, 1.50, 14.96, 0.000, 0.000, 0.000, 14:46:53.122, L
134, 18.65, 16.06, 5.18, 20.50, 0.000, 0.000, 0.000, 14:46:53.122, L
135, 11.25, 10.09, 6.20, 8.00, 0.000, 0.000, 0.000, 14:46:53.138, L
136, 6.45, 4.99, 4.59, 6.70, 0.000, 0.000, 0.000, 14:46:53.138, L
137, 9.02, 10.32, 10.65, 15.91, 0.000, 0.000, 0.000, 14:46:53.138, L
138, 13.64, 15.44, 19.17, 17.36, 0.000, 0.000, 0.000, 14:46:53.139, L
139, 8.81, 8.19, 3.47, 10.81, 0.000, 0.000, 0.000, 14:46:53.158, L
140, 4.67, 5.17, 0.05, 4.69, 0.000, 0.000, 0.000, 14:46:53.158, L
141, 13.81, 9.58, 9.06, 10.95, 0.000, 0.000, 0.000, 14:46:53.166, L
142, 16.09, 14.99, 11.10, 16.34, 0.000, 0.000, 0.000, 14:46:53.166, L
143, 14.94, 15.31, 7.69, 12.74, 0.000, 0.000, 0.000, 14:46:53.167, L
144, 8.83, 6.96, 2.28, 7.99, 0.000, 0.000, 0.000, 14:46:53.167, L
145, 12.28, 10.59, 10.05, 8.33, 0.000, 0.000, 0.000, 14:46:53.181, L
146, 17.65, 18.52, 21.84, 22.65, 0.000, 0.000, 0.000, 14:46:53.181, L
147, 10.59, 11.25, 4.04, 14.74, 0.000, 0.000, 0.000, 14:46:53.196, L
148, 8.23, 8.37, -2.09, 9.12, 0.000, 0.000, 0.000, 14:46:53.197, L
149, 14.99, 10.05, 10.84, 18.25, 0.000, 0.000, 0.000, 14:46:53.197, L
150, 17.04, 17.76, 14.04, 18.20, 0.000, 0.000, 0.000, 14:46:53.197, L
151, 7.21, 12.12, 4.62, 11.40, 0.000, 0.000, 0.000, 14:46:53.211, L
152, 9.88, 4.57, 14.19, 11.62, 0.000, 0.000, 0.000, 14:46:53.212, L
153, 12.74, 9.72, 14.15, 19.45, 0.000, 0.000, 0.000, 14:46:53.226, L
154, 14.49, 17.67, 19.39, 19.37, 0.000, 0.000, 0.000, 14:46:53.226, L
155, 12.58, 11.38, 7.27, 10.73, 0.000, 0.000, 0.000, 14:46:53.227, L
156, 7.09, 7.29, -3.60, 7.14, 0.000, 0.000, 0.000, 14:46:53.227, L
157, 14.28, 15.80, 12.84, 12.84, 0.000, 0.000, 0.000, 14:46:53.241, L
158, 19.68, 15.49, 11.24, 16.70, 0.000, 0.000, 0.000, 14:46:53.242, L
159, 14.79, 11.64, 6.48, 13.79, 0.000, 0.000, 0.000, 14:46:53.257, L
160, 10.20, 7.45, 4.56, 11.88, 0.000, 0.000, 0.000, 14:46:53.257, L
161, 11.14, 11.18, 6.11, 15.84, 0.000, 0.000, 0.000, 14:46:53.257, L
162, 15.81, 15.52, 9.49, 17.34, 0.000, 0.000, 0.000, 14:46:53.258, L
163, 12.56, 14.41, 5.36, 12.33, 0.000, 0.000, 0.000, 14:46:53.273, L
164, 6.06, 7.46, 3.26, 8.82, 0.000, 0.000, 0.000, 14:46:53.273, L
165, 10.19, 12.95, 5.85, 12.46, 0.000, 0.000, 0.000, 14:46:53.289, L
166, 16.93, 15.11, 16.75, 21.91, 0.000, 0.000, 0.000, 14:46:53.290, L
167, 9.30, 10.03, 10.01, 13.01, 0.000, 0.000, 0.000, 14:46:53.290, L
168, 9.94, 7.97, 4.19, 6.68, 0.000, 0.000, 0.000, 14:46:53.290, L
169, 15.67, 16.24, 10.23, 12.96, 0.000, 0.000, 0.000, 14:46:53.302, L
170, 14.43, 18.63, 4.28, 17.14, 0.000, 0.000, 0.000, 14:46:53.302, L
171, 11.71, 11.99, 14.64, 9.23, 0.000, 0.000, 0.000, 14:46:53.318, L
172, 3.93, 5.92, 10.90, 2.55, 0.000, 0.000, 0.000, 14:46:53.318, L
173, 19.21, 14.65, 6.17, 14.28, 0.000, 0.000, 0.000, 14:46:53.318, L
174, 14.10, 18.12, 21.16, 19.52, 0.000, 0.000, 0.000, 14:46:53.318, L
175, 12.97, 7.31, 12.54, 12.21, 0.000, 0.000, 0.000, 14:46:53.332, L
176, 8.35, 6.71, -2.95, 7.61, 0.000, 0.000, 0.000, 14:46:53.332, L
177, 10.02, 9.85, 10.25, 14.95, 0.000, 0.000, 0.000, 14:46:53.346, L
178, 18.02, 16.76, 11.95, 17.76, 0.000, 0.000, 0.000, 14:46:53.346, L
179, 7.31, 10.89, 11.61, 8.40, 0.000, 0.000, 0.000, 14:46:53.347, L
180, 12.79, 5.63, 1.45, 6.01, 0.000, 0.000, 0.000, 14:46:53.347, L
181, 12.25, 11.95, -3.69, 15.75, 0.000, 0.000, 0.000, 14:46:53.361, L
182, 20.69, 23.46, 13.09, 20.41, 0.000, 0.000, 0.000, 14:46:53.361, L
183, 9.90, 11.33, 8.78, 10.76, 0.000, 0.000, 0.000, 14:46:53.376, L
184, 4.88, 10.61, 10.94, 3.91, 0.000, 0.000, 0.000, 14:46:53.377, L
185, 14.22, 12.51, -1.99, 13.24, 0.000, 0.000, 0.000, 14:46:53.379, L
186, 12.96, 16.05, 5.37, 15.98, 0.000, 0.000, 0.000, 14:46:53.380, L
187, 10.99, 8.49, 14.35, 7.77, 0.000, 0.000, 0.000, 14:46:53.392, L
188, 6.21, 6.63, 3.68, 8.38, 0.000, 0.000, 0.000, 14:46:53.392, L
189, 18.64, 11.54, 17.92, 13.65, 0.000, 0.000, 0.000, 14:46:53.422, L
190, 19.69, 17.07, 6.65, 15.35, 0.000, 0.000, 0.000, 14:46:53.424, L
191, 10.23, 10.71, 3.17, 13.27, 0.000, 0.000, 0.000, 14:46:53.424, L
192, 7.83, 9.59, -0.72, 11.80, 0.000, 0.000, 0.000, 14:46:53.424, L
193, 11.32, 14.09, 6.78, 14.06, 0.000, 0.000, 0.000, 14:46:53.424, L
194, 18.88, 16.27, 6.71, 18.77, 0.000, 0.000, 0.000, 14:46:53.424, L
195, 12.54, 11.61, 13.10, 13.45, 0.000, 0.000, 0.000, 14:46:53.424, L
196, 8.30, 10.41, -1.86, 14.13, 0.000, 0.000, 0.000, 14:46:53.425, L
197, 7.36, 13.69, 7.57, 13.55, 0.000, 0.000, 0.000, 14:46:53.437, L
198, 11.57, 13.85, 17.44, 19.79, 0.000, 0.000, 0.000, 14:46:53.437, L
199, 7.87, 7.35, 9.48, 9.37, 0.000, 0.000, 0.000, 14:46:53.451, L
200, 9.33, 7.40, 1.51, 7.28, 0.000, 0.000, 0.000, 14:46:53.452, L
0, 17.55, 15.26, 9.96, 17.26, 0.000, 0.000, 0.000, 14:46:53.452, L
1, 18.16, 15.99, 17.31, 18.13, 0.000, 0.000, 0.000, 14:46:53.466, L
2, 8.94, 10.54, 19.74, 10.81, 0.000, 0.000, 0.000, 14:46:53.466, L
3, 4.34, 7.63, 1.02, 5.86, 0.000, 0.000, 0.000, 14:46:53.481, L
4, 12.47, 15.62, 10.27, 17.39, 0.000, 0.000, 0.000, 14:46:53.481, L
5, 16.78, 15.54, 8.56, 18.94, 0.000, 0.000, 0.000, 14:46:53.482, L
6, 12.25, 10.21, 11.95, 12.95, 0.000, 0.000, 0.000, 14:46:53.482, L
7, 9.67, 10.22, 4.56, 10.54, 0.000, 0.000, 0.000, 14:46:53.497, L
8, 9.54, 11.03, 11.86, 14.26, 0.000, 0.000, 0.000, 14:46:53.497, L
9, 19.80, 18.79, 8.13, 16.58, 0.000, 0.000, 0.000, 14:46:53.511, L
10, 10.08, 13.58, 2.84, 13.46, 0.000, 0.000, 0.000, 14:46:53.511, L
11, 5.93, 5.37, 5.01, 6.16, 0.000, 0.000, 0.000, 14:46:53.512, L
12, 15.86, 12.18, 13.74, 18.37, 0.000, 0.000, 0.000, 14:46:53.512, L
13, 19.57, 17.92, 16.10, 22.52, 0.000, 0.000, 0.000, 14:46:53.526, L
14, 8.13, 10.49, 3.05, 14.70, 0.000, 0.000, 0.000, 14:46:53.526, L
15, 5.97, 3.89, 7.36, 5.59, 0.000, 0.000, 0.000, 14:46:53.541, L
16, 17.18, 16.10, 0.27, 17.25, 0.000, 0.000, 0.000, 14:46:53.541, L
17, 14.54, 19.87, 16.99, 19.80, 0.000, 0.000, 0.000, 14:46:53.541, L
18, 11.38, 13.17, 17.45, 10.26, 0.000, 0.000, 0.000, 14:46:53.542, L
19, 8.03, 5.39, -0.23, 5.03, 0.000, 0.000, 0.000, 14:46:53.558, L
20, 14.52, 12.13, 15.21, 9.28, 0.000, 0.000, 0.000, 14:46:53.558, L
21, 18.34, 16.85, 17.99, 22.03, 0.000, 0.000, 0.000, 14:46:53.571, L
22, 13.24, 12.41, 8.39, 12.39, 0.000, 0.000, 0.000, 14:46:53.572, L
23, 9.29, 4.86, 3.91, 3.37, 0.000, 0.000, 0.000, 14:46:53.573, L
24, 13.11, 14.34, 3.38, 12.96, 0.000, 0.000, 0.000, 14:46:53.574, L
25, 18.20, 14.43, 19.82, 19.94, 0.000, 0.000, 0.000, 14:46:53.587, L
26, 10.38, 6.84, 6.93, 9.74, 0.000, 0.000, 0.000, 14:46:53.588, L
27, 6.48, 7.34, 3.29, 12.64, 0.000, 0.000, 0.000, 14:46:53.601, L
28, 15.09, 13.41, 19.58, 19.97, 0.000, 0.000, 0.000, 14:46:53.601, L
29, 18.70, 19.00, 9.53, 19.66, 0.000, 0.000, 0.000, 14:46:53.609, L
30, 13.98, 13.62, -5.63, 10.56, 0.000, 0.000, 0.000, 14:46:53.609, L
31, 9.99, 8.44, -7.28, 7.25, 0.000, 0.000, 0.000, 14:46:53.622, L
32, 13.57, 13.80, 10.17, 16.14, 0.000, 0.000, 0.000, 14:46:53.623, L
33, 13.68, 15.32, 13.32, 19.32, 0.000, 0.000, 0.000, 14:46:53.631, L
34, 10.20, 10.59, 4.78, 10.73, 0.000, 0.000, 0.000, 14:46:53.631, L
35, 7.18, 9.06, -0.79, 4.91, 0.000, 0.000, 0.000, 14:46:53.632, L
36, 10.82, 12.67, 16.18, 12.96, 0.000, 0.000, 0.000, 14:46:53.632, L
37, 18.92, 16.57, 14.66, 16.34, 0.000, 0.000, 0.000, 14:46:53.646, L
38, 13.49, 11.93, 9.20, 12.56, 0.000, 0.000, 0.000, 14:46:53.646, L
39, 10.17, 5.36, 2.30, 9.00, 0.000, 0.000, 0.000, 14:46:53.661, L
40, 14.42, 10.75, 3.58, 9.33, 0.000, 0.000, 0.000, 14:46:53.661, L
41, 14.51, 13.51, 15.55, 20.26, 0.000, 0.000, 0.000, 14:46:53.662, L
42, 9.98, 9.02, -3.80, 9.85, 0.000, 0.000, 0.000, 14:46:53.662, L
43, 12.47, 6.18, 4.00, 7.33, 0.000, 0.000, 0.000, 14:46:53.676, L
44, 16.09, 11.05, 10.80, 20.14, 0.000, 0.000, 0.000, 14:46:53.676, L
45, 18.81, 16.03, 17.05, 18.94, 0.000, 0.000, 0.000, 14:46:53.692, L
46, 12.35, 12.50, 13.00, 12.50, 0.000, 0.000, 0.000, 14:46:53.692, L
47, 7.35, 6.94, 1.69, 8.06, 0.000, 0.000, 0.000, 14:46:53.692, L
48, 13.93, 13.20, 12.61, 13.14, 0.000, 0.000, 0.000, 14:46:53.692, L
49, 14.26, 19.36, 18.47, 21.46, 0.000, 0.000, 0.000, 14:46:53.710, L
50, 13.12, 9.87, 9.37, 8.78, 0.000, 0.000, 0.000, 14:46:53.710, L
51, 5.31, 5.33, 2.60, 7.79, 0.000, 0.000, 0.000, 14:46:53.722, L
52, 13.06, 17.87, 7.59, 17.50, 0.000, 0.000, 0.000, 14:46:53.722, L
53, 17.53, 17.14, 9.78, 21.78, 0.000, 0.000, 0.000, 14:46:53.723, L
54, 14.46, 11.33, 10.63, 10.09, 0.000, 0.000, 0.000, 14:46:53.725, L
55, 5.35, 8.96, -4.54, 12.41, 0.000, 0.000, 0.000, 14:46:53.737, L
56, 16.26, 14.90, 2.96, 13.70, 0.000, 0.000, 0.000, 14:46:53.737, L
57, 19.07, 17.72, 19.56, 18.59, 0.000, 0.000, 0.000, 14:46:53.751, L
58, 8.32, 9.62, 9.44, 9.81, 0.000, 0.000, 0.000, 14:46:53.752, L
59, 8.50, 8.22, 5.31, 5.98, 0.000, 0.000, 0.000, 14:46:53.752, L
60, 11.03, 13.66, 11.34, 14.03, 0.000, 0.000, 0.000, 14:46:53.753, L
61, 17.54, 17.77, 11.84, 18.96, 0.000, 0.000, 0.000, 14:46:53.766, L
62, 9.79, 7.67, 3.04, 7.23, 0.000, 0.000, 0.000, 14:46:53.766, L
63, 8.39, 5.77, 0.62, 8.18, 0.000, 0.000, 0.000, 14:46:53.781, L
64, 9.02, 12.09, 12.40, 15.97, 0.000, 0.000, 0.000, 14:46:53.781, L
65, 16.38, 17.03, 12.73, 20.23, 0.000, 0.000, 0.000, 14:46:53.782, L
66, 13.10, 10.92, 5.26, 11.46, 0.000, 0.000, 0.000, 14:46:53.782, L
67, 9.22, 10.05, 6.63, 8.43, 0.000, 0.000, 0.000, 14:46:53.796, L
68, 12.36, 14.32, 11.21, 12.76, 0.000, 0.000, 0.000, 14:46:53.796, L
69, 16.34, 16.31, 20.75, 17.13, 0.000, 0.000, 0.000, 14:46:53.811, L
70, 5.23, 12.76, 5.44, 13.71, 0.000, 0.000, 0.000, 14:46:53.811, L
71, 4.69, 5.71, 8.63, 8.46, 0.000, 0.000, 0.000, 14:46:53.812, L
72, 13.35, 15.40, 10.20, 17.93, 0.000, 0.000, 0.000, 14:46:53.812, L
73, 16.10, 17.48, 8.57, 21.01, 0.000, 0.000, 0.000, 14:46:53.826, L
74, 10.63, 10.27, 1.67, 11.22, 0.000, 0.000, 0.000, 14:46:53.826, L
75, 10.33, 5.52, 2.81, 8.36, 0.000, 0.000, 0.000, 14:46:53.841, L
76, 16.19, 11.64, 10.29, 18.53, 0.000, 0.000, 0.000, 14:46:53.841, L
77, 19.32, 15.77, 11.58, 19.25, 0.000, 0.000, 0.000, 14:46:53.842, L
78, 7.66, 12.71, 11.66, 9.30, 0.000, 0.000, 0.000, 14:46:53.842, L
79, 7.54, 10.48, 8.48, 7.53, 0.000, 0.000, 0.000, 14:46:53.857, L
80, 13.90, 15.68, 12.08, 16.68, 0.000, 0.000, 0.000, 14:46:53.857, L
81, 14.75, 16.46, 17.94, 20.02, 0.000, 0.000, 0.000, 14:46:53.871, L
82, 8.88, 11.17, 8.10, 10.44, 0.000, 0.000, 0.000, 14:46:53.872, L
83, 11.17, 6.43, 1.33, 10.63, 0.000, 0.000, 0.000, 14:46:53.874, L
84, 12.19, 12.63, 16.56, 15.64, 0.000, 0.000, 0.000, 14:46:53.874, L
85, 13.62, 15.64, 20.40, 14.79, 0.000, 0.000, 0.000, 14:46:53.886, L
86, 8.99, 8.44, 14.03, 15.73, 0.000, 0.000, 0.000, 14:46:53.887, L
87, 11.44, 9.33, 6.11, 9.67, 0.000, 0.000, 0.000, 14:46:53.901, L
88, 14.32, 14.73, 10.95, 12.40, 0.000, 0.000, 0.000, 14:46:53.901, L
89, 18.66, 19.17, 7.65, 18.35, 0.000, 0.000, 0.000, 14:46:53.902, L
90, 14.10, 10.03, 0.30, 9.93, 0.000, 0.000, 0.000, 14:46:53.902, L
91, 14.33, 7.25, 4.68, 7.66, 0.000, 0.000, 0.000, 14:46:53.916, L
92, 14.63, 14.72, 17.95, 18.49, 0.000, 0.000, 0.000, 14:46:53.916, L
93, 19.57, 16.20, 7.04, 20.44, 0.000, 0.000, 0.000, 14:46:53.931, L
94, 10.78, 11.52, 2.21, 6.69, 0.000, 0.000, 0.000, 14:46:53.931, L
95, 8.40, 7.37, 11.13, 9.00, 0.000, 0.000, 0.000, 14:46:53.932, L
96, 12.68, 15.85, 14.87, 20.09, 0.000, 0.000, 0.000, 14:46:53.932, L
97, 16.26, 16.55, 16.03, 17.42, 0.000, 0.000, 0.000, 14:46:53.946, L
98, 10.64, 9.03, -1.42, 9.93, 0.000, 0.000, 0.000, 14:46:53.946, L
99, 6.83, 4.55, 7.04, 7.58, 0.000, 0.000, 0.000, 14:46:53.961, L
100, 11.88, 13.68, 16.33, 13.05, 0.000, 0.000, 0.000, 14:46:53.961, L
101, 13.49, 14.11, 9.13, 17.43, 0.000, 0.000, 0.000, 14:46:53.962, L
102, 8.51, 8.29, 0.77, 13.01, 0.000, 0.000, 0.000, 14:46:53.962, L
103, 9.08, 6.14, -2.96, 6.06, 0.000, 0.000, 0.000, 14:46:53.976, L
104, 13.34, 15.73, 7.78, 18.02, 0.000, 0.000, 0.000, 14:46:53.976, L
105, 16.76, 18.72, 6.50, 14.64, 0.000, 0.000, 0.000, 14:46:53.991, L
106, 12.69, 10.76, -1.97, 9.69, 0.000, 0.000, 0.000, 14:46:53.991, L
107, 10.12, 7.89, -0.02, 4.23, 0.000, 0.000, 0.000, 14:46:54.000, L
108, 10.40, 13.84, 7.17, 17.19, 0.000, 0.000, 0.000, 14:46:54.000, L
109, 17.38, 17.86, 18.83, 19.34, 0.000, 0.000, 0.000, 14:46:54.008, L
110, 9.02, 10.72, 11.22, 11.88, 0.000, 0.000, 0.000, 14:46:54.011, L
111, 9.65, 5.42, 4.15, 8.75, 0.000, 0.000, 0.000, 14:46:54.022, L
112, 12.72, 9.66, 14.04, 17.95, 0.000, 0.000, 0.000, 14:46:54.023, L
113, 13.14, 14.32, 24.81, 17.79, 0.000, 0.000, 0.000, 14:46:54.024, L
114, 11.48, 11.74, 10.99, 10.00, 0.000, 0.000, 0.000, 14:46:54.024, L
115, 7.18, 10.03, 3.02, 7.39, 0.000, 0.000, 0.000, 14:46:54.040, L
116, 9.52, 14.13, 20.53, 14.30, 0.000, 0.000, 0.000, 14:46:54.041, L
117, 16.87, 17.81, 12.47, 23.54, 0.000, 0.000, 0.000, 14:46:54.051, L
118, 9.57, 10.75, 8.46, 11.42, 0.000, 0.000, 0.000, 14:46:54.051, L
119, 9.56, 9.37, -0.19, 9.38, 0.000, 0.000, 0.000, 14:46:54.052, L
120, 16.83, 11.43, 11.64, 14.42, 0.000, 0.000, 0.000, 14:46:54.052, L
121, 16.18, 13.66, 17.08, 16.52, 0.000, 0.000, 0.000, 14:46:54.066, L
122, 9.50, 11.88, 6.50, 8.59, 0.000, 0.000, 0.000, 14:46:54.066, L
123, 11.97, 10.46, 9.85, 9.04, 0.000, 0.000, 0.000, 14:46:54.081, L
124, 14.05, 13.60, 5.13, 14.71, 0.000, 0.000, 0.000, 14:46:54.082, L
125, 15.84, 15.74, 16.18, 20.40, 0.000, 0.000, 0.000, 14:46:54.082, L
126, 10.44, 12.88, 12.89, 10.86, 0.000, 0.000, 0.000, 14:46:54.082, L
127, 11.66, 7.79, 4.75, 6.67, 0.000, 0.000, 0.000, 14:46:54.096, L
128, 19.22, 14.37, 5.78, 18.31, 0.000, 0.000, 0.000, 14:46:54.097, L
129, 18.18, 12.51, 17.13, 14.29, 0.000, 0.000, 0.000, 14:46:54.111, L
130, 10.51, 10.85, 0.61, 12.65, 0.000, 0.000, 0.000, 14:46:54.111, L
131, 6.74, 10.30, -2.29, 9.55, 0.000, 0.000, 0.000, 14:46:54.112, L
132, 14.02, 13.57, 12.66, 16.29, 0.000, 0.000, 0.000, 14:46:54.112, L
133, 13.99, 16.65, 8.98, 18.98, 0.000, 0.000, 0.000, 14:46:54.126, L
134, 10.94, 10.33, -1.94, 10.71, 0.000, 0.000, 0.000, 14:46:54.126, L
135, 9.48, 10.85, 0.51, 8.61, 0.000, 0.000, 0.000, 14:46:54.141, L
136, 15.44, 14.24, 12.74, 19.90, 0.000, 0.000, 0.000, 14:46:54.141, L
137, 13.02, 15.37, 14.65, 18.24, 0.000, 0.000, 0.000, 14:46:54.142, L
138, 9.34, 10.10, 10.40, 12.17, 0.000, 0.000, 0.000, 14:46:54.142, L
139, 6.92, 4.24, 7.93, 11.80, 0.000, 0.000, 0.000, 14:46:54.157, L
140, 15.03, 16.86, 11.36, 19.17, 0.000, 0.000, 0.000, 14:46:54.158, L
141, 16.16, 16.63, 11.85, 19.32, 0.000, 0.000, 0.000, 14:46:54.173, L
142, 9.71, 7.43, 6.46, 9.88, 0.000, 0.000, 0.000, 14:46:54.173, L
143, 11.02, 8.10, 3.18, 6.94, 0.000, 0.000, 0.000, 14:46:54.174, L
144, 14.47, 12.90, 13.38, 14.57, 0.000, 0.000, 0.000, 14:46:54.174, L
145, 13.85, 14.33, 15.98, 17.36, 0.000, 0.000, 0.000, 14:46:54.187, L
146, 11.24, 11.08, -3.77, 10.78, 0.000, 0.000, 0.000, 14:46:54.187, L
147, 9.12, 9.07, 3.75, 10.48, 0.000, 0.000, 0.000, 14:46:54.201, L
148, 14.41, 13.77, 8.26, 16.75, 0.000, 0.000, 0.000, 14:46:54.201, L
149, 17.49, 17.33, 11.18, 18.86, 0.000, 0.000, 0.000, 14:46:54.201, L
150, 14.20, 12.29, 8.14, 13.20, 0.000, 0.000, 0.000, 14:46:54.202, L
151, 7.20, 8.44, 3.51, 7.17, 0.000, 0.000, 0.000, 14:46:54.216, L
152, 10.42, 10.12, 9.42, 15.37, 0.000, 0.000, 0.000, 14:46:54.216, L
153, 13.78, 14.40, 11.14, 17.59, 0.000, 0.000, 0.000, 14:46:54.231, L
154, 11.45, 10.59, 7.17, 7.50, 0.000, 0.000, 0.000, 14:46:54.231, L
155, 10.34, 9.74, 4.31, 9.04, 0.000, 0.000, 0.000, 14:46:54.232, L
156, 14.81, 13.82, 7.21, 17.37, 0.000, 0.000, 0.000, 14:46:54.232, L
157, 15.55, 13.68, 9.62, 19.97, 0.000, 0.000, 0.000, 14:46:54.246, L
158, 12.89, 9.14, 6.37, 13.24, 0.000, 0.000, 0.000, 14:46:54.246, L
159, 13.08, 6.45, 2.92, 9.42, 0.000, 0.000, 0.000, 14:46:54.261, L
160, 12.68, 11.85, 12.72, 14.98, 0.000, 0.000, 0.000, 14:46:54.261, L
161, 13.51, 16.38, 14.74, 14.25, 0.000, 0.000, 0.000, 14:46:54.268, L
162, 7.83, 8.09, 7.37, 6.39, 0.000, 0.000, 0.000, 14:46:54.269, L
163, 5.12, 6.67, 5.86, 5.19, 0.000, 0.000, 0.000, 14:46:54.276, L
164, 14.43, 12.81, 8.35, 16.01, 0.000, 0.000, 0.000, 14:46:54.276, L
165, 14.98, 20.16, 13.58, 23.80, 0.000, 0.000, 0.000, 14:46:54.291, L
166, 9.17, 10.55, 10.40, 7.90, 0.000, 0.000, 0.000, 14:46:54.292, L
167, 9.81, 9.09, 3.23, 4.39, 0.000, 0.000, 0.000, 14:46:54.292, L
168, 12.76, 11.98, 9.81, 15.30, 0.000, 0.000, 0.000, 14:46:54.292, L
169, 18.24, 16.93, 19.48, 18.25, 0.000, 0.000, 0.000, 14:46:54.308, L
170, 10.53, 8.43, 12.87, 5.87, 0.000, 0.000, 0.000, 14:46:54.308, L
171, 10.97, 7.26, 1.95, 7.93, 0.000, 0.000, 0.000, 14:46:54.323, L
172, 17.28, 15.46, 12.02, 17.65, 0.000, 0.000, 0.000, 14:46:54.323, L
173, 15.98, 16.41, 8.33, 20.09, 0.000, 0.000, 0.000, 14:46:54.324, L
174, 14.63, 9.66, 3.31, 9.31, 0.000, 0.000, 0.000, 14:46:54.324, L
175, 9.58, 10.77, 4.61, 6.09, 0.000, 0.000, 0.000, 14:46:54.341, L
176, 13.00, 16.31, 8.18, 20.25, 0.000, 0.000, 0.000, 14:46:54.342, L
177, 17.06, 16.29, 9.29, 19.71, 0.000, 0.000, 0.000, 14:46:54.351, L
178, 10.10, 10.12, 6.49, 12.87, 0.000, 0.000, 0.000, 14:46:54.351, L
179, 5.92, 7.77, 6.28, 8.18, 0.000, 0.000, 0.000, 14:46:54.352, L
180, 12.64, 12.25, 4.28, 15.58, 0.000, 0.000, 0.000, 14:46:54.352, L
181, 15.20, 15.66, 8.40, 19.83, 0.000, 0.000, 0.000, 14:46:54.366, L
182, 6.34, 7.27, 14.23, 11.24, 0.000, 0.000, 0.000, 14:46:54.366, L
183, 6.40, 6.08, 3.08, 10.88, 0.000, 0.000, 0.000, 14:46:54.381, L
184, 16.90, 17.67, 10.90, 17.17, 0.000, 0.000, 0.000, 14:46:54.381, L
185, 19.06, 14.89, 11.60, 12.74, 0.000, 0.000, 0.000, 14:46:54.382, L
186, 5.83, 8.11, 3.49, 11.65, 0.000, 0.000, 0.000, 14:46:54.382, L
187, 7.55, 6.03, 6.63, 10.22, 0.000, 0.000, 0.000, 14:46:54.396, L
188, 13.82, 13.42, 7.83, 18.39, 0.000, 0.000, 0.000, 14:46:54.396, L
189, 16.28, 14.67, 11.87, 19.30, 0.000, 0.000, 0.000, 14:46:54.411, L
190, 13.00, 8.81, 14.62, 10.35, 0.000, 0.000, 0.000, 14:46:54.411, L
191, 11.08, 9.36, 3.95, 11.98, 0.000, 0.000, 0.000, 14:46:54.412, L
192, 13.68, 16.06, 10.33, 14.11, 0.000, 0.000, 0.000, 14:46:54.412, L
193, 18.35, 14.79, 13.30, 11.36, 0.000, 0.000, 0.000, 14:46:54.426, L
194, 8.62, 7.80, 11.23, 10.05, 0.000, 0.000, 0.000, 14:46:54.427, L
195, 7.69, 8.75, 11.83, 9.77, 0.000, 0.000, 0.000, 14:46:54.441, L
196, 17.59, 15.46, 14.44, 18.52, 0.000, 0.000, 0.000, 14:46:54.441, L
197, 15.22, 17.61, 11.84, 18.46, 0.000, 0.000, 0.000, 14:46:54.441, L
198, 11.13, 9.35, 5.50, 9.27, 0.000, 0.000, 0.000, 14:46:54.442, L
199, 8.90, 7.75, 1.45, 9.12, 0.000, 0.000, 0.000, 14:46:54.457, L
200, 13.24, 16.87, 15.31, 17.15, 0.000, 0.000, 0.000, 14:46:54.457, L
0, 18.39, 19.99, 12.31, 15.56, 0.000, 0.000, 0.000, 14:46:54.457, L
1, 14.72, 10.03, 6.45, 9.85, 0.000, 0.000, 0.000, 14:46:54.473, L
2, 7.06, 7.31, 3.14, 8.32, 0.000, 0.000, 0.000, 14:46:54.473, L
3, 12.74, 13.66, 13.90, 18.37, 0.000, 0.000, 0.000, 14:46:54.487, L
4, 14.41, 11.45, 17.21, 15.40, 0.000, 0.000, 0.000, 14:46:54.488, L
5, 10.37, 8.50, 3.50, 6.19, 0.000, 0.000, 0.000, 14:46:54.488, L
6, 6.87, 9.25, 5.97, 6.56, 0.000, 0.000, 0.000, 14:46:54.488, L
7, 15.29, 19.59, 11.20, 18.14, 0.000, 0.000, 0.000, 14:46:54.501, L
8, 14.96, 18.90, 6.26, 19.03, 0.000, 0.000, 0.000, 14:46:54.501, L
9, 12.14, 6.97, 1.89, 9.14, 0.000, 0.000, 0.000, 14:46:54.516, L
10, 7.71, 5.20, -1.77, 8.87, 0.000, 0.000, 0.000, 14:46:54.516, L
11, 12.01, 15.47, 14.72, 19.00, 0.000, 0.000, 0.000, 14:46:54.517, L
12, 14.78, 18.58, 6.35, 20.39, 0.000, 0.000, 0.000, 14:46:54.517, L
13, 8.63, 8.20, 1.24, 8.51, 0.000, 0.000, 0.000, 14:46:54.531, L
14, 8.48, 9.34, 2.92, 9.93, 0.000, 0.000, 0.000, 14:46:54.532, L
15, 17.77, 16.24, 17.40, 15.37, 0.000, 0.000, 0.000, 14:46:54.546, L
16, 16.68, 16.74, 13.74, 18.48, 0.000, 0.000, 0.000, 14:46:54.547, L
17, 9.91, 10.27, 12.75, 13.39, 0.000, 0.000, 0.000, 14:46:54.547, L
18, 7.20, 5.55, 6.34, 10.19, 0.000, 0.000, 0.000, 14:46:54.547, L
19, 14.51, 11.94, 12.85, 19.88, 0.000, 0.000, 0.000, 14:46:54.561, L
20, 13.44, 17.56, 16.89, 17.35, 0.000, 0.000, 0.000, 14:46:54.561, L
21, 7.58, 8.58, 4.13, 9.68, 0.000, 0.000, 0.000, 14:46:54.576, L
22, 7.38, 9.15, 4.14, 7.43, 0.000, 0.000, 0.000, 14:46:54.576, L
23, 16.68, 11.82, 12.24, 13.98, 0.000, 0.000, 0.000, 14:46:54.576, L
24, 15.24, 14.66, 10.80, 16.59, 0.000, 0.000, 0.000, 14:46:54.577, L
25, 10.81, 8.20, 6.94, 8.56, 0.000, 0.000, 0.000, 14:46:54.591, L
26, 8.17, 6.92, 2.36, 5.99, 0.000, 0.000, 0.000, 14:46:54.592, L
27, 17.30, 17.21, 10.64, 17.40, 0.000, 0.000, 0.000, 14:46:54.607, L
28, 16.09, 14.54, 12.49, 20.74, 0.000, 0.000, 0.000, 14:46:54.607, L
29, 11.49, 8.48, 9.47, 9.52, 0.000, 0.000, 0.000, 14:46:54.607, L
30, 7.09, 9.68, 3.96, 7.68, 0.000, 0.000, 0.000, 14:46:54.607, L
31, 13.08, 14.44, 11.61, 14.86, 0.000, 0.000, 0.000, 14:46:54.622, L
32, 14.90, 15.40, 13.32, 22.26, 0.000, 0.000, 0.000, 14:46:54.623, L
33, 10.31, 7.86, 10.12, 12.55, 0.000, 0.000, 0.000, 14:46:54.637, L
34, 3.73, 8.21, 0.90, 10.97, 0.000, 0.000, 0.000, 14:46:54.637, L
35, 13.97, 12.90, 8.10, 16.87, 0.000, 0.000, 0.000, 14:46:54.637, L
36, 12.85, 16.84, 11.27, 17.86, 0.000, 0.000, 0.000, 14:46:54.637, L
37, 10.14, 9.77, 1.81, 8.96, 0.000, 0.000, 0.000, 14:46:54.651, L
38, 12.52, 12.25, 7.92, 6.55, 0.000, 0.000, 0.000, 14:46:54.651, L
39, 16.12, 15.43, 15.36, 12.61, 0.000, 0.000, 0.000, 14:46:54.666, L
40, 17.07, 16.89, 17.44, 16.84, 0.000, 0.000, 0.000, 14:46:54.667, L
41, 7.25, 6.26, 6.85, 8.51, 0.000, 0.000, 0.000, 14:46:54.667, L
42, 8.97, 6.87, 1.78, 12.37, 0.000, 0.000, 0.000, 14:46:54.667, L
43, 14.38, 14.48, 15.83, 14.94, 0.000, 0.000, 0.000, 14:46:54.681, L
44, 19.78, 16.15, 10.03, 18.99, 0.000, 0.000, 0.000, 14:46:54.681, L
45, 9.57, 7.30, 4.82, 9.76, 0.000, 0.000, 0.000, 14:46:54.696, L
46, 8.92, 7.76, -3.02, 7.08, 0.000, 0.000, 0.000, 14:46:54.697, L
47, 14.35, 12.41, 12.40, 16.64, 0.000, 0.000, 0.000, 14:46:54.697, L
48, 14.58, 15.63, 20.20, 19.45, 0.000, 0.000, 0.000, 14:46:54.697, L
49, 8.65, 8.54, -3.42, 10.80, 0.000, 0.000, 0.000, 14:46:54.712, L
50, 4.94, 3.48, 2.07, 8.09, 0.000, 0.000, 0.000, 14:46:54.712, L
51, 19.31, 15.94, 21.27, 20.27, 0.000, 0.000, 0.000, 14:46:54.726, L
52, 25.82, 15.71, 19.91, 17.61, 0.000, 0.000, 0.000, 14:46:54.726, L
53, 10.09, 9.42, 9.18, 8.91, 0.000, 0.000, 0.000, 14:46:54.727, L
54, 13.87, 8.03, -6.39, 7.32, 0.000, 0.000, 0.000, 14:46:54.727, L
55, 16.86, 15.58, 7.64, 17.34, 0.000, 0.000, 0.000, 14:46:54.741, L
56, 10.35, 14.39, 13.47, 13.82, 0.000, 0.000, 0.000, 14:46:54.742, L
57, 3.53, 12.45, 8.16, 8.23, 0.000, 0.000, 0.000, 14:46:54.757, L
58, 9.37, 7.55, 10.73, 7.78, 0.000, 0.000, 0.000, 14:46:54.757, L
59, 19.46, 15.46, 14.30, 20.47, 0.000, 0.000, 0.000, 14:46:54.757, L
60, 13.83, 15.95, 5.06, 20.94, 0.000, 0.000, 0.000, 14:46:54.757, L
61, 9.13, 11.02, -0.23, 7.47, 0.000, 0.000, 0.000, 14:46:54.771, L
62, 3.87, 9.13, 8.61, 7.98, 0.000, 0.000, 0.000, 14:46:54.771, L
63, 12.68, 8.68, 7.09, 14.27, 0.000, 0.000, 0.000, 14:46:54.787, L
64, 24.90, 18.26, 19.11, 18.08, 0.000, 0.000, 0.000, 14:46:54.787, L
65, 6.90, 10.75, 13.12, 7.76, 0.000, 0.000, 0.000, 14:46:54.787, L
66, 9.01, 8.38, 8.50, 11.78, 0.000, 0.000, 0.000, 14:46:54.787, L
67, 11.40, 15.31, 13.00, 21.09, 0.000, 0.000, 0.000, 14:46:54.801, L
68, 12.42, 15.30, 6.39, 19.02, 0.000, 0.000, 0.000, 14:46:54.801, L
69, 7.38, 9.86, 4.79, 7.97, 0.000, 0.000, 0.000, 14:46:54.816, L
70, 5.55, 8.84, 3.84, 7.53, 0.000, 0.000, 0.000, 14:46:54.817, L
71, 12.82, 14.98, 3.47, 19.04, 0.000, 0.000, 0.000, 14:46:54.817, L
72, 14.92, 17.29, 13.34, 19.05, 0.000, 0.000, 0.000, 14:46:54.817, L
73, 8.63, 8.82, 1.70, 12.71, 0.000, 0.000, 0.000, 14:46:54.833, L
74, 7.20, 8.57, 0.35, 7.23, 0.000, 0.000, 0.000, 14:46:54.834, L
75, 11.16, 15.42, 13.53, 17.35, 0.000, 0.000, 0.000, 14:46:54.848, L
76, 12.46, 18.61, 12.26, 17.93, 0.000, 0.000, 0.000, 14:46:54.848, L
77, 14.68, 6.71, 11.36, 9.89, 0.000, 0.000, 0.000, 14:46:54.848, L
78, 12.20, 5.36, 7.82, 6.17, 0.000, 0.000, 0.000, 14:46:54.848, L
79, 13.38, 15.39, 6.86, 18.18, 0.000, 0.000, 0.000, 14:46:54.861, L
80, 14.44, 18.70, 9.97, 18.75, 0.000, 0.000, 0.000, 14:46:54.862, L
81, 14.05, 10.39, 8.10, 11.53, 0.000, 0.000, 0.000, 14:46:54.876, L
82, 11.66, 6.40, 4.82, 8.48, 0.000, 0.000, 0.000, 14:46:54.876, L
83, 13.69, 11.04, 7.62, 15.98, 0.000, 0.000, 0.000, 14:46:54.877, L
84, 17.04, 17.33, 14.41, 15.54, 0.000, 0.000, 0.000, 14:46:54.877, L
85, 4.09, 5.72, 3.56, 9.05, 0.000, 0.000, 0.000, 14:46:54.892, L
86, 9.44, 5.25, 1.69, 6.44, 0.000, 0.000, 0.000, 14:46:54.892, L
87, 13.01, 14.43, 14.85, 18.12, 0.000, 0.000, 0.000, 14:46:54.907, L
88, 12.76, 16.14, 11.92, 13.57, 0.000, 0.000, 0.000, 14:46:54.907, L
89, 10.97, 11.14, 3.49, 8.73, 0.000, 0.000, 0.000, 14:46:54.907, L
90, 8.58, 5.32, 3.75, 4.65, 0.000, 0.000, 0.000, 14:46:54.907, L
91, 12.77, 15.65, 13.06, 17.60, 0.000, 0.000, 0.000, 14:46:54.922, L
92, 19.35, 16.70, 13.08, 16.87, 0.000, 0.000, 0.000, 14:46:54.923, L
93, 10.43, 6.73, -1.34, 11.19, 0.000, 0.000, 0.000, 14:46:54.937, L
94, 8.82, 8.71, 5.56, 13.01, 0.000, 0.000, 0.000, 14:46:54.938, L
95, 16.45, 14.86, 11.40, 17.89, 0.000, 0.000, 0.000, 14:46:54.938, L
96, 15.62, 19.83, 17.32, 19.02, 0.000, 0.000, 0.000, 14:46:54.938, L
97, 14.98, 11.83, 14.50, 8.01, 0.000, 0.000, 0.000, 14:46:54.971, L
98, 7.83, 6.54, 6.99, 4.93, 0.000, 0.000, 0.000, 14:46:54.971, L
99, 16.23, 15.57, 2.90, 20.03, 0.000, 0.000, 0.000, 14:46:54.972, L
100, 12.22, 14.92, 11.55, 11.71, 0.000, 0.000, 0.000, 14:46:54.973, L
101, 11.53, 6.44, 4.35, 9.18, 0.000, 0.000, 0.000, 14:46:54.974, L
102, 10.52, 10.10, 6.17, 8.43, 0.000, 0.000, 0.000, 14:46:54.974, L
103, 11.03, 14.64, 6.01, 16.55, 0.000, 0.000, 0.000, 14:46:54.983, L
104, 12.53, 18.83, 16.20, 17.73, 0.000, 0.000, 0.000, 14:46:54.983, L
105, 10.03, 6.44, 8.10, 12.31, 0.000, 0.000, 0.000, 14:46:54.996, L
106, 10.77, 11.23, 3.17, 12.18, 0.000, 0.000, 0.000, 14:46:54.996, L
107, 15.18, 13.43, 7.39, 21.38, 0.000, 0.000, 0.000, 14:46:54.997, L
108, 16.52, 17.31, 8.09, 17.84, 0.000, 0.000, 0.000, 14:46:54.997, L
109, 3.49, 7.50, 11.50, 6.28, 0.000, 0.000, 0.000, 14:46:55.011, L
110, 6.31, 10.51, 2.13, 9.84, 0.000, 0.000, 0.000, 14:46:55.012, L
111, 15.99, 17.21, 10.28, 16.72, 0.000, 0.000, 0.000, 14:46:55.026, L
112, 15.08, 16.66, 5.78, 18.22, 0.000, 0.000, 0.000, 14:46:55.027, L
113, 11.83, 8.72, -3.38, 8.20, 0.000, 0.000, 0.000, 14:46:55.027, L
114, 7.79, 14.38, 1.19, 12.58, 0.000, 0.000, 0.000, 14:46:55.027, L
115, 17.15, 17.40, 12.79, 16.04, 0.000, 0.000, 0.000, 14:46:55.041, L
116, 19.73, 16.76, 15.36, 21.23, 0.000, 0.000, 0.000, 14:46:55.041, L
117, 13.15, 10.55, 13.00, 11.70, 0.000, 0.000, 0.000, 14:46:55.059, L
118, 15.21, 8.98, 6.34, 8.40, 0.000, 0.000, 0.000, 14:46:55.059, L
119, 13.96, 16.12, 15.42, 18.92, 0.000, 0.000, 0.000, 14:46:55.059, L
120, 13.82, 14.32, 13.91, 16.74, 0.000, 0.000, 0.000, 14:46:55.059, L
121, 14.28, 7.94, 8.73, 11.97, 0.000, 0.000, 0.000, 14:46:55.073, L
122, 10.28, 9.39, 6.25, 7.61, 0.000, 0.000, 0.000, 14:46:55.073, L
123, 13.34, 15.34, 14.60, 20.83, 0.000, 0.000, 0.000, 14:46:55.086, L
124, 14.14, 14.94, 14.62, 18.28, 0.000, 0.000, 0.000, 14:46:55.087, L
125, 9.10, 8.35, 6.37, 11.51, 0.000, 0.000, 0.000, 14:46:55.087, L
126, 6.78, 3.40, 6.89, 7.36, 0.000, 0.000, 0.000, 14:46:55.087, L
127, 10.88, 15.83, 13.64, 18.28, 0.000, 0.000, 0.000, 14:46:55.108, L
128, 16.28, 14.46, 6.93, 18.41, 0.000, 0.000, 0.000, 14:46:55.108, L
129, 6.96, 4.09, 1.51, 7.38, 0.000, 0.000, 0.000, 14:46:55.116, L
130, 6.31, 6.43, 6.67, 10.18, 0.000, 0.000, 0.000, 14:46:55.116, L
131, 15.25, 19.00, 10.48, 15.72, 0.000, 0.000, 0.000, 14:46:55.117, L
132, 14.66, 14.17, 18.12, 13.78, 0.000, 0.000, 0.000, 14:46:55.117, L
133, 9.81, 9.54, 10.56, 6.23, 0.000, 0.000, 0.000, 14:46:55.131, L
134, 10.00, 7.29, 4.19, 9.62, 0.000, 0.000, 0.000, 14:46:55.131, L
135, 18.21, 15.81, 13.25, 19.64, 0.000, 0.000, 0.000, 14:46:55.146, L
136, 15.25, 14.58, 12.68, 13.95, 0.000, 0.000, 0.000, 14:46:55.146, L
137, 11.51, 9.30, 5.71, 7.55, 0.000, 0.000, 0.000, 14:46:55.147, L
138, 9.85, 10.97, 5.57, 6.34, 0.000, 0.000, 0.000, 14:46:55.147, L
139, 13.30, 16.46, 14.62, 15.57, 0.000, 0.000, 0.000, 14:46:55.161, L
140, 15.84, 16.37, 18.62, 17.38, 0.000, 0.000, 0.000, 14:46:55.161, L
141, 4.90, 10.17, 2.59, 5.61, 0.000, 0.000, 0.000, 14:46:55.176, L
142, 4.67, 6.79, 0.88, 7.54, 0.000, 0.000, 0.000, 14:46:55.177, L
143, 13.33, 15.25, 11.04, 17.43, 0.000, 0.000, 0.000, 14:46:55.177, L
144, 19.09, 17.43, 16.28, 20.76, 0.000, 0.000, 0.000, 14:46:55.177, L
145, 8.74, 12.74, 13.59, 14.39, 0.000, 0.000, 0.000, 14:46:55.192, L
146, 7.18, 0.69, -8.79, 7.02, 0.000, 0.000, 0.000, 14:46:55.192, L
147, 15.33, 14.75, 8.96, 17.55, 0.000, 0.000, 0.000, 14:46:55.207, L
148, 12.30, 15.10, 8.42, 18.97, 0.000, 0.000, 0.000, 14:46:55.207, L
149, 8.14, 7.83, 4.48, 8.60, 0.000, 0.000, 0.000, 14:46:55.207, L
150, 9.30, 8.57, 2.22, 10.28, 0.000, 0.000, 0.000, 14:46:55.207, L
151, 17.77, 18.24, 18.64, 20.05, 0.000, 0.000, 0.000, 14:46:55.222, L
152, 20.74, 17.45, 7.94, 24.00, 0.000, 0.000, 0.000, 14:46:55.223, L
153, 12.74, 7.52, 4.08, 10.40, 0.000, 0.000, 0.000, 14:46:55.241, L
154, 13.17, 10.94, 11.01, 11.26, 0.000, 0.000, 0.000, 14:46:55.242, L
155, 15.29, 16.58, 7.38, 15.04, 0.000, 0.000, 0.000, 14:46:55.242, L
156, 17.70, 22.04, 11.23, 20.51, 0.000, 0.000, 0.000, 14:46:55.243, L
157, 6.25, 7.47, -6.05, 10.15, 0.000, 0.000, 0.000, 14:46:55.251, L
158, 10.31, 8.62, 6.12, 12.71, 0.000, 0.000, 0.000, 14:46:55.252, L
159, 15.84, 15.70, 17.50, 18.65, 0.000, 0.000, 0.000, 14:46:55.268, L
160, 17.79, 13.63, 10.56, 10.51, 0.000, 0.000, 0.000, 14:46:55.268, L
161, 12.69, 6.67, -1.00, 11.72, 0.000, 0.000, 0.000, 14:46:55.268, L
162, 8.53, 2.94, 8.32, 8.08, 0.000, 0.000, 0.000, 14:46:55.269, L
163, 16.76, 14.19, 9.56, 15.80, 0.000, 0.000, 0.000, 14:46:55.283, L
164, 16.91, 17.50, 12.50, 21.23, 0.000, 0.000, 0.000, 14:46:55.283, L
165, 3.65, 6.98, -0.08, 7.70, 0.000, 0.000, 0.000, 14:46:55.296, L
166, 7.75, 11.12, 5.45, 9.89, 0.000, 0.000, 0.000, 14:46:55.296, L
167, 14.51, 14.59, 18.45, 14.83, 0.000, 0.000, 0.000, 14:46:55.299, L
168, 10.87, 17.71, 11.06, 14.69, 0.000, 0.000, 0.000, 14:46:55.300, L
169, 6.59, 10.18, -0.27, 9.24, 0.000, 0.000, 0.000, 14:46:55.311, L
170, 12.70, 12.59, 7.30, 9.44, 0.000, 0.000, 0.000, 14:46:55.311, L
171, 15.03, 16.15, 19.07, 16.40, 0.000, 0.000, 0.000, 14:46:55.326, L
172, 14.15, 13.35, 18.82, 15.71, 0.000, 0.000, 0.000, 14:46:55.326, L
173, 9.25, 9.04, 3.15, 6.48, 0.000, 0.000, 0.000, 14:46:55.327, L
174, 8.78, 6.11, 0.11, 9.31, 0.000, 0.000, 0.000, 14:46:55.327, L
175, 16.74, 16.98, 18.61, 18.60, 0.000, 0.000, 0.000, 14:46:55.341, L
176, 17.61, 14.18, 15.11, 15.42, 0.000, 0.000, 0.000, 14:46:55.341, L
177, 10.67, 7.03, 2.67, 10.38, 0.000, 0.000, 0.000, 14:46:55.358, L
178, 10.30, 6.85, 12.67, 12.85, 0.000, 0.000, 0.000, 14:46:55.358, L
179, 16.11, 17.41, 18.55, 16.87, 0.000, 0.000, 0.000, 14:46:55.359, L
180, 16.26, 9.74, 11.14, 18.27, 0.000, 0.000, 0.000, 14:46:55.359, L
181, 7.36, 9.21, 2.16, 6.41, 0.000, 0.000, 0.000, 14:46:55.373, L
182, 10.49, 7.71, 0.83, 9.10, 0.000, 0.000, 0.000, 14:46:55.374, L
183, 15.07, 15.40, 16.18, 20.14, 0.000, 0.000, 0.000, 14:46:55.392, L
184, 10.77, 16.34, 15.90, 15.46, 0.000, 0.000, 0.000, 14:46:55.392, L
185, 11.49, 11.23, 0.67, 9.65, 0.000, 0.000, 0.000, 14:46:55.393, L
186, 12.63, 6.40, 6.29, 10.49, 0.000, 0.000, 0.000, 14:46:55.394, L
187, 18.38, 16.54, 12.15, 20.30, 0.000, 0.000, 0.000, 14:46:55.408, L
188, 16.20, 13.81, 12.51, 17.29, 0.000, 0.000, 0.000, 14:46:55.408, L
189, 4.44, 5.48, 4.83, 7.07, 0.000, 0.000, 0.000, 14:46:55.416, L
190, 7.42, 7.44, -1.97, 8.42, 0.000, 0.000, 0.000, 14:46:55.416, L
191, 15.57, 17.72, 14.36, 18.05, 0.000, 0.000, 0.000, 14:46:55.420, L
192, 14.74, 10.07, 15.83, 17.45, 0.000, 0.000, 0.000, 14:46:55.421, L
193, 5.78, 4.83, 10.61, 9.88, 0.000, 0.000, 0.000, 14:46:55.431, L
194, 4.66, 7.14, 3.85, 6.31, 0.000, 0.000, 0.000, 14:46:55.431, L
195, 12.23, 15.71, 22.95, 19.20, 0.000, 0.000, 0.000, 14:46:55.446, L
196, 17.18, 19.81, 1.59, 16.20, 0.000, 0.000, 0.000, 14:46:55.446, L
197, 14.68, 8.59, -3.44, 9.22, 0.000, 0.000, 0.000, 14:46:55.447, L
198, 8.40, 9.43, -3.34, 7.65, 0.000, 0.000, 0.000, 14:46:55.447, L
199, 16.80, 14.18, 10.71, 15.39, 0.000, 0.000, 0.000, 14:46:55.461, L
200, 12.58, 15.29, 8.56, 19.45, 0.000, 0.000, 0.000, 14:46:55.461, L
0, 6.91, 10.43, 4.24, 4.93, 0.000, 0.000, 0.000, 14:46:55.462, L
1, 9.25, 9.68, -4.67, 11.01, 0.000, 0.000, 0.000, 14:46:55.476, L
2, 14.72, 16.72, 15.89, 20.67, 0.000, 0.000, 0.000, 14:46:55.476, L
3, 18.55, 16.09, 11.61, 17.46, 0.000, 0.000, 0.000, 14:46:55.492, L
4, 7.80, 8.10, 7.49, 11.90, 0.000, 0.000, 0.000, 14:46:55.492, L
5, 8.62, 7.50, 0.72, 8.04, 0.000, 0.000, 0.000, 14:46:55.495, L
6, 15.26, 17.02, 15.23, 14.71, 0.000, 0.000, 0.000, 14:46:55.495, L
7, 8.77, 10.39, 7.61, 16.15, 0.000, 0.000, 0.000, 14:46:55.507, L
8, 7.83, 7.46, 7.34, 6.87, 0.000, 0.000, 0.000, 14:46:55.508, L
9, 10.16, 7.95, 7.28, 11.07, 0.000, 0.000, 0.000, 14:46:55.522, L
10, 15.09, 13.68, 13.98, 19.20, 0.000, 0.000, 0.000, 14:46:55.523, L
11, 16.03, 13.13, 8.82, 18.08, 0.000, 0.000, 0.000, 14:46:55.523, L
12, 10.19, 10.12, 8.25, 9.56, 0.000, 0.000, 0.000, 14:46:55.524, L
13, 8.76, 8.43, 1.08, 10.00, 0.000, 0.000, 0.000, 14:46:55.537, L
14, 17.03, 17.87, 5.10, 17.98, 0.000, 0.000, 0.000, 14:46:55.537, L
15, 17.72, 18.43, 5.05, 19.35, 0.000, 0.000, 0.000, 14:46:55.551, L
16, 10.53, 8.19, -6.59, 10.73, 0.000, 0.000, 0.000, 14:46:55.551, L
17, 14.31, 12.93, 13.87, 12.43, 0.000, 0.000, 0.000, 14:46:55.558, L
18, 13.75, 14.28, 19.63, 20.37, 0.000, 0.000, 0.000, 14:46:55.558, L
19, 20.32, 16.79, 19.05, 13.15, 0.000, 0.000, 0.000, 14:46:55.566, L
20, 5.66, 7.75, 3.84, 6.79, 0.000, 0.000, 0.000, 14:46:55.566, L
21, 10.24, 7.63, 9.54, 9.92, 0.000, 0.000, 0.000, 14:46:55.581, L
22, 18.96, 21.25, 20.55, 15.48, 0.000, 0.000, 0.000, 14:46:55.581, L
23, 11.48, 13.64, 8.42, 12.10, 0.000, 0.000, 0.000, 14:46:55.582, L
24, 6.84, 6.37, 4.11, 9.18, 0.000, 0.000, 0.000, 14:46:55.582, L
25, 10.29, 7.13, 8.11, 5.55, 0.000, 0.000, 0.000, 14:46:55.596, L
26, 15.84, 16.59, 7.64, 18.41, 0.000, 0.000, 0.000, 14:46:55.596, L
27, 10.32, 13.46, 5.48, 16.58, 0.000, 0.000, 0.000, 14:46:55.612, L
28, 7.15, 6.53, 1.85, 7.68, 0.000, 0.000, 0.000, 14:46:55.612, L
29, 11.37, 8.34, 3.42, 11.28, 0.000, 0.000, 0.000, 14:46:55.612, L
30, 15.74, 16.31, 14.89, 17.96, 0.000, 0.000, 0.000, 14:46:55.612, L
31, 16.47, 13.71, 10.50, 11.88, 0.000, 0.000, 0.000, 14:46:55.628, L
32, 8.26, 6.98, 8.72, 14.20, 0.000, 0.000, 0.000, 14:46:55.628, L
33, 7.98, 12.23, 2.13, 7.55, 0.000, 0.000, 0.000, 14:46:55.641, L
34, 15.52, 18.00, 15.83, 19.95, 0.000, 0.000, 0.000, 14:46:55.641, L
35, 13.80, 13.01, 5.73, 13.29, 0.000, 0.000, 0.000, 14:46:55.642, L
36, 9.36, 7.56, 5.65, 8.25, 0.000, 0.000, 0.000, 14:46:55.642, L
37, 9.82, 7.50, 4.95, 12.66, 0.000, 0.000, 0.000, 14:46:55.658, L
38, 17.05, 15.12, 17.21, 28.03, 0.000, 0.000, 0.000, 14:46:55.658, L
39, 14.21, 13.59, 10.35, 12.73, 0.000, 0.000, 0.000, 14:46:55.671, L
40, 9.90, 8.44, 5.79, 6.40, 0.000, 0.000, 0.000, 14:46:55.671, L
41, 9.13, 8.72, 4.04, 8.80, 0.000, 0.000, 0.000, 14:46:55.673, L
42, 15.42, 17.94, 19.04, 16.93, 0.000, 0.000, 0.000, 14:46:55.673, L
43, 12.42, 15.48, 12.81, 17.11, 0.000, 0.000, 0.000, 14:46:55.689, L
44, 9.43, 6.62, 1.91, 7.84, 0.000, 0.000, 0.000, 14:46:55.690, L
45, 13.36, 10.96, 3.14, 7.42, 0.000, 0.000, 0.000, 14:46:55.701, L
46, 17.00, 16.77, 16.53, 18.94, 0.000, 0.000, 0.000, 14:46:55.701, L
47, 15.74, 13.73, 11.10, 20.26, 0.000, 0.000, 0.000, 14:46:55.703, L
48, 10.23, 6.23, 3.86, 11.13, 0.000, 0.000, 0.000, 14:46:55.703, L
49, 10.79, 8.14, 3.51, 8.42, 0.000, 0.000, 0.000, 14:46:55.717, L
50, 12.83, 17.47, 14.24, 21.91, 0.000, 0.000, 0.000, 14:46:55.717, L
51, 13.39, 14.89, 17.57, 19.24, 0.000, 0.000, 0.000, 14:46:55.731, L
52, 9.10, 9.28, 7.40, 6.42, 0.000, 0.000, 0.000, 14:46:55.731, L
53, 10.13, 6.47, 6.16, 5.77, 0.000, 0.000, 0.000, 14:46:55.732, L
54, 21.28, 13.77, 6.97, 17.17, 0.000, 0.000, 0.000, 14:46:55.732, L
55, 14.83, 14.85, 7.85, 15.69, 0.000, 0.000, 0.000, 14:46:55.746, L
56, 7.13, 8.86, 0.86, 9.12, 0.000, 0.000, 0.000, 14:46:55.746, L
57, 8.29, 8.84, 10.45, 9.24, 0.000, 0.000, 0.000, 14:46:55.761, L
58, 15.71, 15.12, 10.99, 18.00, 0.000, 0.000, 0.000, 14:46:55.761, L
59, 11.95, 17.77, 5.25, 17.05, 0.000, 0.000, 0.000, 14:46:55.762, L
60, 11.45, 9.46, -0.51, 8.08, 0.000, 0.000, 0.000, 14:46:55.762, L
61, 10.23, 6.27, 6.53, 7.78, 0.000, 0.000, 0.000, 14:46:55.776, L
62, 16.48, 17.92, 12.76, 20.77, 0.000, 0.000, 0.000, 14:46:55.777, L
63, 12.47, 13.07, 4.19, 16.50, 0.000, 0.000, 0.000, 14:46:55.791, L
64, 8.00, 8.11, 0.47, 6.24, 0.000, 0.000, 0.000, 14:46:55.791, L
65, 10.73, 12.44, 7.24, 10.13, 0.000, 0.000, 0.000, 14:46:55.792, L
66, 19.94, 14.28, 10.40, 19.64, 0.000, 0.000, 0.000, 14:46:55.792, L
67, 14.17, 16.32, 11.52, 14.69, 0.000, 0.000, 0.000, 14:46:55.808, L
68, 8.75, 9.84, 5.17, 10.91, 0.000, 0.000, 0.000, 14:46:55.808, L
69, 12.54, 11.85, 8.89, 9.22, 0.000, 0.000, 0.000, 14:46:55.823, L
70, 15.14, 16.41, 12.97, 20.86, 0.000, 0.000, 0.000, 14:46:55.823, L
71, 11.56, 11.91, 11.95, 14.44, 0.000, 0.000, 0.000, 14:46:55.823, L
72, 10.23, 7.60, 0.91, 13.16, 0.000, 0.000, 0.000, 14:46:55.824, L
73, 11.69, 9.05, 4.82, 9.37, 0.000, 0.000, 0.000, 14:46:55.837, L
74, 13.81, 16.09, 15.62, 17.12, 0.000, 0.000, 0.000, 14:46:55.838, L
75, 14.40, 12.86, 14.05, 16.32, 0.000, 0.000, 0.000, 14:46:55.851, L
76, 7.42, 6.26, 6.35, 6.30, 0.000, 0.000, 0.000, 14:46:55.851, L
77, 7.36, 11.27, 1.50, 14.06, 0.000, 0.000, 0.000, 14:46:55.852, L
78, 17.91, 13.41, 14.08, 17.95, 0.000, 0.000, 0.000, 14:46:55.852, L
79, 9.73, 14.44, 16.87, 14.08, 0.000, 0.000, 0.000, 14:46:55.867, L
80, 6.42, 7.78, 4.74, 8.79, 0.000, 0.000, 0.000, 14:46:55.867, L
81, 10.24, 8.41, 6.98, 13.55, 0.000, 0.000, 0.000, 14:46:55.881, L
82, 16.97, 17.19, 17.00, 17.27, 0.000, 0.000, 0.000, 14:46:55.881, L
83, 13.61, 15.62, 19.88, 11.79, 0.000, 0.000, 0.000, 14:46:55.882, L
84, 4.77, 8.59, 3.95, 10.22, 0.000, 0.000, 0.000, 14:46:55.882, L
85, 14.48, 8.31, 3.44, 7.91, 0.000, 0.000, 0.000, 14:46:55.896, L
86, 15.19, 12.65, 13.46, 18.41, 0.000, 0.000, 0.000, 14:46:55.896, L
87, 13.30, 15.00, 10.49, 15.77, 0.000, 0.000, 0.000, 14:46:55.912, L
88, 7.43, 6.36, 2.00, 7.98, 0.000, 0.000, 0.000, 14:46:55.912, L
89, 8.76, 9.85, 5.50, 11.91, 0.000, 0.000, 0.000, 14:46:55.912, L
90, 14.74, 17.06, 15.16, 20.23, 0.000, 0.000, 0.000, 14:46:55.912, L
91, 12.15, 17.44, 7.25, 12.64, 0.000, 0.000, 0.000, 14:46:55.933, L
92, 8.73, 8.68, 8.85, 11.35, 0.000, 0.000, 0.000, 14:46:55.933, L
93, 14.02, 10.42, 4.93, 12.85, 0.000, 0.000, 0.000, 14:46:55.941, L
94, 12.88, 16.41, 13.84, 18.14, 0.000, 0.000, 0.000, 14:46:55.942, L
95, 17.21, 13.94, 17.31, 16.33, 0.000, 0.000, 0.000, 14:46:55.942, L
96, 12.73, 9.36, 9.77, 9.86, 0.000, 0.000, 0.000, 14:46:55.942, L
97, 10.53, 10.55, 7.58, 10.62, 0.000, 0.000, 0.000, 14:46:55.957, L
98, 12.00, 17.69, 24.85, 20.56, 0.000, 0.000, 0.000, 14:46:55.957, L
99, 15.24, 11.82, 6.42, 18.52, 0.000, 0.000, 0.000, 14:46:55.971, L
100, 9.40, 7.83, -1.55, 12.73, 0.000, 0.000, 0.000, 14:46:55.971, L
101, 8.87, 11.54, 5.09, 7.78, 0.000, 0.000, 0.000, 14:46:55.973, L
102, 14.13, 16.17, 12.51, 20.11, 0.000, 0.000, 0.000, 14:46:55.973, L
103, 11.73, 15.41, 15.74, 16.01, 0.000, 0.000, 0.000, 14:46:55.987, L
104, 12.06, 4.84, 5.59, 10.11, 0.000, 0.000, 0.000, 14:46:55.988, L
105, 11.44, 9.95, 9.28, 10.90, 0.000, 0.000, 0.000, 14:46:56.001, L
106, 23.11, 15.39, 16.58, 19.12, 0.000, 0.000, 0.000, 14:46:56.001, L
107, 16.02, 13.98, 9.38, 14.60, 0.000, 0.000, 0.000, 14:46:56.001, L
108, 11.75, 7.13, 6.48, 12.79, 0.000, 0.000, 0.000, 14:46:56.002, L
109, 9.62, 8.97, 0.79, 10.51, 0.000, 0.000, 0.000, 14:46:56.016, L
110, 16.72, 17.84, 14.73, 18.83, 0.000, 0.000, 0.000, 14:46:56.017, L
111, 13.41, 13.67, 8.06, 14.70, 0.000, 0.000, 0.000, 14:46:56.031, L
112, 6.48, 11.23, 0.96, 8.17, 0.000, 0.000, 0.000, 14:46:56.032, L
113, 9.06, 8.71, 10.21, 7.10, 0.000, 0.000, 0.000, 14:46:56.032, L
114, 15.89, 17.96, 16.03, 15.92, 0.000, 0.000, 0.000, 14:46:56.032, L
115, 17.09, 18.01, 9.43, 15.14, 0.000, 0.000, 0.000, 14:46:56.046, L
116, 4.18, 8.53, -0.22, 6.23, 0.000, 0.000, 0.000, 14:46:56.046, L
117, 9.31, 7.87, 11.11, 12.22, 0.000, 0.000, 0.000, 14:46:56.062, L
118, 19.95, 18.86, 15.19, 19.76, 0.000, 0.000, 0.000, 14:46:56.062, L
119, 16.77, 12.83, 13.10, 14.75, 0.000, 0.000, 0.000, 14:46:56.076, L
120, 13.47, 10.36, 4.93, 9.95, 0.000, 0.000, 0.000, 14:46:56.076, L
121, 10.17, 9.15, 2.05, 11.25, 0.000, 0.000, 0.000, 14:46:56.077, L
122, 19.06, 20.25, 15.64, 18.96, 0.000, 0.000, 0.000, 14:46:56.077, L
123, 11.69, 12.11, 11.44, 14.97, 0.000, 0.000, 0.000, 14:46:56.091, L
124, 4.52, 6.56, 3.38, 10.55, 0.000, 0.000, 0.000, 14:46:56.091, L
125, 8.38, 8.58, 5.67, 9.20, 0.000, 0.000, 0.000, 14:46:56.092, L
126, 16.71, 15.65, 9.86, 17.18, 0.000, 0.000, 0.000, 14:46:56.092, L
127, 11.25, 11.52, 11.27, 16.49, 0.000, 0.000, 0.000, 14:46:56.107, L
128, 10.77, 8.81, 0.50, 11.91, 0.000, 0.000, 0.000, 14:46:56.107, L
129, 10.30, 12.31, 0.96, 11.14, 0.000, 0.000, 0.000, 14:46:56.122, L
130, 20.22, 18.70, 5.70, 23.02, 0.000, 0.000, 0.000, 14:46:56.123, L
131, 14.47, 12.35, -2.83, 21.71, 0.000, 0.000, 0.000, 14:46:56.124, L
132, 9.86, 7.98, -2.97, 7.93, 0.000, 0.000, 0.000, 14:46:56.124, L
133, 11.41, 10.12, 13.21, 9.43, 0.000, 0.000, 0.000, 14:46:56.140, L
134, 19.00, 17.46, 19.82, 18.65, 0.000, 0.000, 0.000, 14:46:56.140, L
135, 14.24, 13.26, 9.45, 13.78, 0.000, 0.000, 0.000, 14:46:56.151, L
136, 6.67, 6.71, 0.09, 8.76, 0.000, 0.000, 0.000, 14:46:56.151, L
137, 5.95, 9.82, 8.73, 10.00, 0.000, 0.000, 0.000, 14:46:56.153, L
138, 19.66, 17.54, 14.25, 17.30, 0.000, 0.000, 0.000, 14:46:56.153, L
139, 15.24, 11.88, 8.52, 15.59, 0.000, 0.000, 0.000, 14:46:56.166, L
140, 6.90, 7.69, 6.15, 7.28, 0.000, 0.000, 0.000, 14:46:56.166, L
141, 11.45, 9.25, 7.38, 7.86, 0.000, 0.000, 0.000, 14:46:56.182, L
142, 18.44, 17.19, 19.75, 18.08, 0.000, 0.000, 0.000, 14:46:56.182, L
143, 12.22, 12.86, 10.98, 18.67, 0.000, 0.000, 0.000, 14:46:56.183, L
144, 6.71, 9.15, 8.05, 7.44, 0.000, 0.000, 0.000, 14:46:56.183, L
145, 10.90, 12.81, 9.39, 7.32, 0.000, 0.000, 0.000, 14:46:56.197, L
146, 14.24, 18.68, 16.85, 17.79, 0.000, 0.000, 0.000, 14:46:56.197, L
147, 14.87, 11.59, 4.80, 17.73, 0.000, 0.000, 0.000, 14:46:56.212, L
148, 4.87, 5.92, 2.84, 4.08, 0.000, 0.000, 0.000, 14:46:56.213, L
149, 13.77, 7.89, 14.99, 12.84, 0.000, 0.000, 0.000, 14:46:56.213, L
150, 15.59, 16.54, 16.42, 21.24, 0.000, 0.000, 0.000, 14:46:56.213, L
151, 12.72, 11.65, 11.27, 14.48, 0.000, 0.000, 0.000, 14:46:56.226, L
152, 8.53, 6.15, 1.68, 9.62, 0.000, 0.000, 0.000, 14:46:56.226, L
153, 13.56, 10.79, 3.62, 10.66, 0.000, 0.000, 0.000, 14:46:56.241, L
154, 15.64, 17.49, 10.05, 18.93, 0.000, 0.000, 0.000, 14:46:56.241, L
155, 15.30, 12.18, 16.80, 18.25, 0.000, 0.000, 0.000, 14:46:56.242, L
156, 11.24, 7.67, 11.44, 4.82, 0.000, 0.000, 0.000, 14:46:56.242, L
157, 10.81, 11.02, 3.10, 16.04, 0.000, 0.000, 0.000, 14:46:56.257, L
158, 17.73, 19.08, 12.13, 19.51, 0.000, 0.000, 0.000, 14:46:56.257, L
159, 11.95, 13.48, 4.33, 16.24, 0.000, 0.000, 0.000, 14:46:56.272, L
160, 6.94, 7.00, -1.70, 6.58, 0.000, 0.000, 0.000, 14:46:56.273, L
161, 7.49, 11.06, 2.95, 8.99, 0.000, 0.000, 0.000, 14:46:56.273, L
162, 16.04, 19.74, 15.48, 18.50, 0.000, 0.000, 0.000, 14:46:56.273, L
163, 10.86, 13.92, 3.98, 9.51, 0.000, 0.000, 0.000, 14:46:56.287, L
164, 10.36, 8.93, 2.77, 8.61, 0.000, 0.000, 0.000, 14:46:56.287, L
165, 13.26, 7.48, 12.72, 13.42, 0.000, 0.000, 0.000, 14:46:56.301, L
166, 16.59, 16.20, 9.19, 22.66, 0.000, 0.000, 0.000, 14:46:56.301, L
167, 14.15, 16.09, 2.94, 14.14, 0.000, 0.000, 0.000, 14:46:56.302, L
168, 6.45, 2.90, -1.80, 7.05, 0.000, 0.000, 0.000, 14:46:56.303, L
169, 8.01, 8.45, 4.13, 12.40, 0.000, 0.000, 0.000, 14:46:56.316, L
170, 17.76, 17.14, 20.93, 20.36, 0.000, 0.000, 0.000, 14:46:56.316, L
171, 14.48, 14.39, 22.97, 14.15, 0.000, 0.000, 0.000, 14:46:56.331, L
172, 7.86, 8.89, 6.51, 7.14, 0.000, 0.000, 0.000, 14:46:56.331, L
173, 17.92, 12.80, 12.00, 12.98, 0.000, 0.000, 0.000, 14:46:56.332, L
174, 15.88, 15.43, 10.70, 20.79, 0.000, 0.000, 0.000, 14:46:56.332, L
175, 14.52, 11.37, 8.42, 16.16, 0.000, 0.000, 0.000, 14:46:56.346, L
176, 6.37, 3.64, -3.86, 5.96, 0.000, 0.000, 0.000, 14:46:56.346, L
177, 9.31, 10.01, 2.16, 12.70, 0.000, 0.000, 0.000, 14:46:56.361, L
178, 19.17, 17.47, 12.20, 21.15, 0.000, 0.000, 0.000, 14:46:56.361, L
179, 14.42, 12.11, 17.55, 16.77, 0.000, 0.000, 0.000, 14:46:56.362, L
180, 7.71, 7.58, 12.19, 5.26, 0.000, 0.000, 0.000, 14:46:56.362, L
181, 10.53, 10.55, 6.29, 11.96, 0.000, 0.000, 0.000, 14:46:56.377, L
182, 19.26, 19.44, 17.99, 21.13, 0.000, 0.000, 0.000, 14:46:56.377, L
183, 14.31, 14.19, 11.64, 15.25, 0.000, 0.000, 0.000, 14:46:56.391, L
184, 6.97, 4.21, 3.69, 5.13, 0.000, 0.000, 0.000, 14:46:56.392, L
185, 9.67, 12.48, 1.74, 12.36, 0.000, 0.000, 0.000, 14:46:56.392, L
186, 18.91, 16.92, 11.84, 22.09, 0.000, 0.000, 0.000, 14:46:56.392, L
187, 13.13, 11.05, 15.61, 13.23, 0.000, 0.000, 0.000, 14:46:56.413, L
188, 5.85, 7.71, -0.77, 7.38, 0.000, 0.000, 0.000, 14:46:56.413, L
189, 9.04, 13.85, 9.37, 12.06, 0.000, 0.000, 0.000, 14:46:56.421, L
190, 14.16, 15.53, 17.29, 21.14, 0.000, 0.000, 0.000, 14:46:56.422, L
191, 12.53, 14.94, 11.90, 14.98, 0.000, 0.000, 0.000, 14:46:56.423, L
192, 9.22, 8.53, 1.93, 6.26, 0.000, 0.000, 0.000, 14:46:56.424, L
193, 13.47, 14.03, 2.53, 12.47, 0.000, 0.000, 0.000, 14:46:56.437, L
194, 20.61, 17.52, 14.59, 24.62, 0.000, 0.000, 0.000, 14:46:56.437, L
195, 11.11, 11.89, 4.59, 13.00, 0.000, 0.000, 0.000, 14:46:56.451, L
196, 7.24, 7.56, 13.81, 7.93, 0.000, 0.000, 0.000, 14:46:56.451, L
197, 9.88, 7.45, 11.77, 10.63, 0.000, 0.000, 0.000, 14:46:56.452, L
198, 15.17, 16.59, 10.88, 20.03, 0.000, 0.000, 0.000, 14:46:56.452, L
199, 12.84, 13.57, 7.47, 12.14, 0.000, 0.000, 0.000, 14:46:56.466, L
200, 6.87, 5.58, -2.55, 5.69, 0.000, 0.000, 0.000, 14:46:56.466, L
0, 7.92, 10.85, 5.38, 6.92, 0.000, 0.000, 0.000, 14:46:56.467, L
1, 12.57, 16.51, 11.87, 15.73, 0.000, 0.000, 0.000, 14:46:56.481, L
2, 12.75, 11.86, 11.16, 18.68, 0.000, 0.000, 0.000, 14:46:56.482, L
3, 9.41, 6.46, 7.42, 10.25, 0.000, 0.000, 0.000, 14:46:56.496, L
4, 12.22, 8.24, 4.10, 13.44, 0.000, 0.000, 0.000, 14:46:56.497, L
5, 13.90, 16.57, 9.36, 19.55, 0.000, 0.000, 0.000, 14:46:56.497, L
6, 13.15, 11.41, 9.99, 12.41, 0.000, 0.000, 0.000, 14:46:56.497, L
7, 8.98, 7.24, 6.22, 11.19, 0.000, 0.000, 0.000, 14:46:56.511, L
8, 12.67, 10.88, 8.33, 13.12, 0.000, 0.000, 0.000, 14:46:56.512, L
9, 16.84, 20.40, 10.83, 18.23, 0.000, 0.000, 0.000, 14:46:56.526, L
10, 12.47, 9.72, 15.70, 13.94, 0.000, 0.000, 0.000, 14:46:56.526, L
11, 10.63, 7.38, 4.89, 5.29, 0.000, 0.000, 0.000, 14:46:56.527, L
12, 11.04, 11.49, 3.38, 12.30, 0.000, 0.000, 0.000, 14:46:56.527, L
13, 15.94, 22.76, 24.15, 20.04, 0.000, 0.000, 0.000, 14:46:56.541, L
14, 15.19, 12.05, 11.99, 16.46, 0.000, 0.000, 0.000, 14:46:56.541, L
15, 8.90, 7.85, 8.87, 3.81, 0.000, 0.000, 0.000, 14:46:56.556, L
16, 13.12, 9.25, 5.26, 8.96, 0.000, 0.000, 0.000, 14:46:56.557, L
17, 16.58, 16.83, 12.42, 12.76, 0.000, 0.000, 0.000, 14:46:56.557, L
18, 13.12, 14.15, 10.49, 16.23, 0.000, 0.000, 0.000, 14:46:56.557, L
19, 11.72, 4.11, -4.14, 4.94, 0.000, 0.000, 0.000, 14:46:56.573, L
20, 7.90, 10.51, 8.75, 8.08, 0.000, 0.000, 0.000, 14:46:56.573, L
21, 16.42, 20.60, 17.87, 18.80, 0.000, 0.000, 0.000, 14:46:56.587, L
22, 11.84, 14.55, 14.27, 11.00, 0.000, 0.000, 0.000, 14:46:56.587, L
23, 5.07, 5.14, 0.40, 11.58, 0.000, 0.000, 0.000, 14:46:56.601, L
24, 11.29, 6.13, 5.03, 13.14, 0.000, 0.000, 0.000, 14:46:56.601, L
25, 19.68, 14.78, 10.57, 20.20, 0.000, 0.000, 0.000, 14:46:56.602, L
26, 13.66, 15.76, 7.96, 16.09, 0.000, 0.000, 0.000, 14:46:56.603, L
27, 8.03, 8.21, -3.23, 9.24, 0.000, 0.000, 0.000, 14:46:56.616, L
28, 14.25, 11.87, 11.84, 10.70, 0.000, 0.000, 0.000, 14:46:56.616, L
29, 14.60, 13.62, 14.18, 17.10, 0.000, 0.000, 0.000, 14:46:56.617, L
30, 14.25, 12.47, 5.15, 14.60, 0.000, 0.000, 0.000, 14:46:56.617, L
31, 2.62, 8.99, -6.59, 8.06, 0.000, 0.000, 0.000, 14:46:56.631, L
32, 10.10, 9.02, 1.92, 13.69, 0.000, 0.000, 0.000, 14:46:56.631, L
33, 13.83, 14.91, 14.76, 20.64, 0.000, 0.000, 0.000, 14:46:56.646, L
34, 14.98, 12.78, 11.95, 16.20, 0.000, 0.000, 0.000, 14:46:56.646, L
35, 6.81, 7.03, 7.20, 5.52, 0.000, 0.000, 0.000, 14:46:56.647, L
36, 12.77, 12.38, 7.99, 8.94, 0.000, 0.000, 0.000, 14:46:56.647, L
37, 16.13, 16.69, 14.88, 22.77, 0.000, 0.000, 0.000, 14:46:56.661, L
38, 12.08, 15.94, 9.06, 18.29, 0.000, 0.000, 0.000, 14:46:56.661, L
39, 7.88, 6.24, 0.30, 6.95, 0.000, 0.000, 0.000, 14:46:56.676, L
40, 13.02, 10.62, 4.82, 10.72, 0.000, 0.000, 0.000, 14:46:56.676, L
41, 17.97, 18.24, 16.92, 18.17, 0.000, 0.000, 0.000, 14:46:56.676, L
42, 11.52, 13.16, 11.15, 11.89, 0.000, 0.000, 0.000, 14:46:56.677, L
43, 4.15, 4.13, 0.03, 7.75, 0.000, 0.000, 0.000, 14:46:56.691, L
44, 12.07, 11.63, 9.56, 11.34, 0.000, 0.000, 0.000, 14:46:56.692, L
45, 17.93, 21.22, 18.02, 22.46, 0.000, 0.000, 0.000, 14:46:56.707, L
46, 14.99, 13.48, 12.25, 19.46, 0.000, 0.000, 0.000, 14:46:56.707, L
47, 8.93, 8.01, 7.64, 8.41, 0.000, 0.000, 0.000, 14:46:56.707, L
48, 11.62, 11.09, 11.34, 13.72, 0.000, 0.000, 0.000, 14:46:56.707, L
49, 18.85, 16.23, 11.79, 22.07, 0.000, 0.000, 0.000, 14:46:56.723, L
50, 11.71, 11.66, 6.98, 14.41, 0.000, 0.000, 0.000, 14:46:56.723, L
51, 7.84, 9.35, 4.78, 8.22, 0.000, 0.000, 0.000, 14:46:56.738, L
52, 7.28, 12.21, 12.23, 14.88, 0.000, 0.000, 0.000, 14:46:56.738, L
53, 17.62, 18.42, 12.53, 18.47, 0.000, 0.000, 0.000, 14:46:56.738, L
54, 11.95, 13.56, 7.37, 13.44, 0.000, 0.000, 0.000, 14:46:56.738, L
55, 9.79, 4.67, 4.27, 8.23, 0.000, 0.000, 0.000, 14:46:56.751, L
56, 16.00, 10.33, 8.33, 13.37, 0.000, 0.000, 0.000, 14:46:56.751, L
57, 19.89, 21.45, 9.49, 19.15, 0.000, 0.000, 0.000, 14:46:56.766, L
58, 14.25, 11.13, 9.84, 15.39, 0.000, 0.000, 0.000, 14:46:56.766, L
59, 10.72, 7.35, 3.31, 5.10, 0.000, 0.000, 0.000, 14:46:56.767, L
60, 15.29, 13.32, 13.21, 13.92, 0.000, 0.000, 0.000, 14:46:56.767, L
61, 12.85, 17.97, 18.64, 18.96, 0.000, 0.000, 0.000, 14:46:56.781, L
62, 10.28, 10.90, 11.79, 9.13, 0.000, 0.000, 0.000, 14:46:56.782, L
63, 8.84, 6.32, 6.61, 7.02, 0.000, 0.000, 0.000, 14:46:56.796, L
64, 8.40, 9.93, 12.19, 12.72, 0.000, 0.000, 0.000, 14:46:56.797, L
65, 16.64, 20.33, 11.58, 22.89, 0.000, 0.000, 0.000, 14:46:56.797, L
66, 11.08, 9.19, 9.56, 14.00, 0.000, 0.000, 0.000, 14:46:56.797, L
67, 7.60, 6.29, -0.96, 7.57, 0.000, 0.000, 0.000, 14:46:56.811, L
68, 8.79, 12.83, 9.29, 8.84, 0.000, 0.000, 0.000, 14:46:56.811, L
69, 16.09, 21.07, 19.05, 17.83, 0.000, 0.000, 0.000, 14:46:56.826, L
70, 11.24, 10.37, 6.70, 6.49, 0.000, 0.000, 0.000, 14:46:56.826, L
71, 4.31, 5.99, -1.65, 7.03, 0.000, 0.000, 0.000, 14:46:56.826, L
72, 11.27, 10.63, 8.38, 10.93, 0.000, 0.000, 0.000, 14:46:56.827, L
73, 16.23, 12.76, 15.36, 21.28, 0.000, 0.000, 0.000, 14:46:56.841, L
74, 12.38, 12.83, 5.42, 17.62, 0.000, 0.000, 0.000, 14:46:56.842, L
75, 7.19, 9.09, 2.41, 11.83, 0.000, 0.000, 0.000, 14:46:56.857, L
76, 13.18, 9.03, 8.45, 11.56, 0.000, 0.000, 0.000, 14:46:56.857, L
77, 15.24, 13.46, 4.72, 14.48, 0.000, 0.000, 0.000, 14:46:56.864, L
78, 15.11, 15.10, 9.94, 12.81, 0.000, 0.000, 0.000, 14:46:56.864, L
79, 10.36, 8.43, 8.72, 6.02, 0.000, 0.000, 0.000, 14:46:56.873, L
80, 12.05, 10.54, 4.13, 13.89, 0.000, 0.000, 0.000, 14:46:56.873, L
81, 17.09, 17.66, 18.71, 22.54, 0.000, 0.000, 0.000, 14:46:56.887, L
82, 11.52, 14.46, 10.19, 14.73, 0.000, 0.000, 0.000, 14:46:56.887, L
83, 7.04, 8.44, 3.28, 6.02, 0.000, 0.000, 0.000, 14:46:56.887, L
84, 13.37, 11.09, 7.13, 11.47, 0.000, 0.000, 0.000, 14:46:56.888, L
85, 14.39, 19.88, 15.56, 16.56, 0.000, 0.000, 0.000, 14:46:56.901, L
86, 10.91, 13.14, 14.49, 16.32, 0.000, 0.000, 0.000, 14:46:56.901, L
87, 12.94, 11.92, -3.17, 9.67, 0.000, 0.000, 0.000, 14:46:56.917, L
88, 11.40, 11.08, -0.15, 11.96, 0.000, 0.000, 0.000, 14:46:56.917, L
89, 17.60, 17.39, 6.09, 17.95, 0.000, 0.000, 0.000, 14:46:56.918, L
90, 10.66, 13.67, 8.88, 15.83, 0.000, 0.000, 0.000, 14:46:56.918, L
91, 7.68, 4.97, 8.48, 9.21, 0.000, 0.000, 0.000, 14:46:56.932, L
92, 12.06, 9.43, 14.08, 12.19, 0.000, 0.000, 0.000, 14:46:56.932, L
93, 15.14, 17.12, 13.10, 19.67, 0.000, 0.000, 0.000, 14:46:56.946, L
94, 15.11, 12.05, 3.03, 14.02, 0.000, 0.000, 0.000, 14:46:56.946, L
95, 7.52, 6.02, 0.77, 6.70, 0.000, 0.000, 0.000, 14:46:56.947, L
96, 12.09, 9.98, 9.39, 11.11, 0.000, 0.000, 0.000, 14:46:56.947, L
97, 18.71, 15.38, 18.34, 20.84, 0.000, 0.000, 0.000, 14:46:56.976, L
98, 13.57, 12.63, 6.40, 14.61, 0.000, 0.000, 0.000, 14:46:56.976, L
99, 4.47, 3.41, 1.65, 6.90, 0.000, 0.000, 0.000, 14:46:56.977, L
100, 12.96, 12.49, 5.62, 13.85, 0.000, 0.000, 0.000, 14:46:56.977, L
101, 14.65, 19.39, 18.37, 20.32, 0.000, 0.000, 0.000, 14:46:56.978, L
102, 13.97, 15.58, 11.87, 12.98, 0.000, 0.000, 0.000, 14:46:56.978, L
103, 7.01, 7.01, 0.85, 7.84, 0.000, 0.000, 0.000, 14:46:56.991, L
104, 12.41, 9.31, 8.15, 10.65, 0.000, 0.000, 0.000, 14:46:56.992, L
105, 14.91, 15.88, 14.74, 24.35, 0.000, 0.000, 0.000, 14:46:57.008, L
106, 13.59, 14.37, 9.54, 14.24, 0.000, 0.000, 0.000, 14:46:57.009, L
107, 9.65, 8.24, 1.70, 8.93, 0.000, 0.000, 0.000, 14:46:57.009, L
108, 11.18, 9.39, 8.37, 10.01, 0.000, 0.000, 0.000, 14:46:57.009, L
109, 12.86, 16.01, 12.39, 18.23, 0.000, 0.000, 0.000, 14:46:57.024, L
110, 14.35, 10.96, 10.77, 13.03, 0.000, 0.000, 0.000, 14:46:57.024, L
111, 10.41, 8.74, 6.11, 5.21, 0.000, 0.000, 0.000, 14:46:57.038, L
112, 11.69, 11.02, 5.30, 13.83, 0.000, 0.000, 0.000, 14:46:57.038, L
113, 20.42, 15.06, 10.97, 19.97, 0.000, 0.000, 0.000, 14:46:57.039, L
114, 10.84, 14.73, 6.60, 12.89, 0.000, 0.000, 0.000, 14:46:57.040, L
115, 8.06, 9.42, 1.73, 8.77, 0.000, 0.000, 0.000, 14:46:57.051, L
116, 15.11, 13.36, 9.29, 13.24, 0.000, 0.000, 0.000, 14:46:57.051, L
117, 14.80, 13.96, 10.01, 15.24, 0.000, 0.000, 0.000, 14:46:57.066, L
118, 10.45, 11.22, 4.18, 12.24, 0.000, 0.000, 0.000, 14:46:57.066, L
119, 8.95, 4.69, 3.75, 4.99, 0.000, 0.000, 0.000, 14:46:57.067, L
120, 10.95, 8.12, 11.25, 12.88, 0.000, 0.000, 0.000, 14:46:57.067, L
121, 18.26, 16.24, 11.31, 22.50, 0.000, 0.000, 0.000, 14:46:57.081, L
122, 13.16, 11.68, 8.93, 8.44, 0.000, 0.000, 0.000, 14:46:57.081, L
123, 5.39, 7.29, 4.84, 9.20, 0.000, 0.000, 0.000, 14:46:57.096, L
124, 11.12, 12.16, 9.60, 14.17, 0.000, 0.000, 0.000, 14:46:57.096, L
125, 14.97, 17.28, 19.77, 15.96, 0.000, 0.000, 0.000, 14:46:57.097, L
126, 14.12, 14.92, 19.48, 15.15, 0.000, 0.000, 0.000, 14:46:57.097, L
127, 8.83, 10.15, 1.42, 7.78, 0.000, 0.000, 0.000, 14:46:57.112, L
128, 14.63, 13.92, 7.87, 16.53, 0.000, 0.000, 0.000, 14:46:57.112, L
129, 16.08, 15.00, 13.14, 17.91, 0.000, 0.000, 0.000, 14:46:57.126, L
130, 11.92, 12.38, 9.07, 8.93, 0.000, 0.000, 0.000, 14:46:57.126, L
131, 10.36, 7.03, -2.71, 10.86, 0.000, 0.000, 0.000, 14:46:57.127, L
132, 13.47, 13.11, 13.34, 13.19, 0.000, 0.000, 0.000, 14:46:57.127, L
133, 12.66, 16.67, 11.00, 17.88, 0.000, 0.000, 0.000, 14:46:57.142, L
134, 14.06, 10.26, 13.94, 19.73, 0.000, 0.000, 0.000, 14:46:57.142, L
135, 7.16, 9.59, -1.99, 7.98, 0.000, 0.000, 0.000, 14:46:57.157, L
136, 10.78, 8.41, 9.14, 13.05, 0.000, 0.000, 0.000, 14:46:57.157, L
137, 14.37, 14.79, 13.49, 19.59, 0.000, 0.000, 0.000, 14:46:57.157, L
138, 11.17, 12.89, 13.70, 16.28, 0.000, 0.000, 0.000, 14:46:57.157, L
139, 6.06, 4.86, -5.40, 6.11, 0.000, 0.000, 0.000, 14:46:57.172, L
140, 8.13, 11.54, 10.02, 14.51, 0.000, 0.000, 0.000, 14:46:57.173, L
141, 15.75, 18.94, 19.84, 13.94, 0.000, 0.000, 0.000, 14:46:57.191, L
142, 12.90, 11.62, 10.08, 12.33, 0.000, 0.000, 0.000, 14:46:57.191, L
143, 5.39, 7.15, 4.24, 6.40, 0.000, 0.000, 0.000, 14:46:57.191, L
144, 12.78, 13.45, 8.88, 15.98, 0.000, 0.000, 0.000, 14:46:57.191, L
145, 16.44, 16.01, 15.74, 19.91, 0.000, 0.000, 0.000, 14:46:57.204, L
146, 15.51, 11.66, 6.00, 13.55, 0.000, 0.000, 0.000, 14:46:57.205, L
147, 11.94, 12.37, 5.69, 10.63, 0.000, 0.000, 0.000, 14:46:57.216, L
148, 11.90, 10.52, 10.59, 12.62, 0.000, 0.000, 0.000, 14:46:57.217, L
149, 19.38, 17.74, 11.22, 20.65, 0.000, 0.000, 0.000, 14:46:57.217, L
150, 14.00, 13.23, 8.21, 11.65, 0.000, 0.000, 0.000, 14:46:57.217, L
151, 9.56, 7.83, 4.16, 5.65, 0.000, 0.000, 0.000, 14:46:57.231, L
152, 10.34, 18.51, 7.66, 13.55, 0.000, 0.000, 0.000, 14:46:57.231, L
153, 17.58, 18.22, 21.43, 20.93, 0.000, 0.000, 0.000, 14:46:57.246, L
154, 9.73, 8.47, 10.35, 14.25, 0.000, 0.000, 0.000, 14:46:57.247, L
155, 6.69, 4.29, -1.05, 7.56, 0.000, 0.000, 0.000, 14:46:57.247, L
156, 12.07, 10.00, 8.94, 10.49, 0.000, 0.000, 0.000, 14:46:57.247, L
157, 16.66, 17.94, 17.42, 21.14, 0.000, 0.000, 0.000, 14:46:57.261, L
158, 11.05, 9.36, 4.74, 14.35, 0.000, 0.000, 0.000, 14:46:57.261, L
159, 6.38, 3.65, -8.73, 5.70, 0.000, 0.000, 0.000, 14:46:57.276, L
160, 12.13, 12.48, 9.47, 10.67, 0.000, 0.000, 0.000, 14:46:57.277, L
161, 14.74, 19.51, 11.61, 18.37, 0.000, 0.000, 0.000, 14:46:57.277, L
162, 13.54, 11.37, 14.83, 11.75, 0.000, 0.000, 0.000, 14:46:57.277, L
163, 6.31, 5.16, 3.17, 4.96, 0.000, 0.000, 0.000, 14:46:57.291, L
164, 11.40, 14.54, 10.11, 16.72, 0.000, 0.000, 0.000, 14:46:57.291, L
165, 11.69, 20.52, 24.26, 22.09, 0.000, 0.000, 0.000, 14:46:57.307, L
166, 12.64, 15.12, 0.25, 17.79, 0.000, 0.000, 0.000, 14:46:57.307, L
167, 6.89, 7.56, -3.20, 5.08, 0.000, 0.000, 0.000, 14:46:57.307, L
168, 15.68, 12.87, 10.53, 13.61, 0.000, 0.000, 0.000, 14:46:57.307, L
169, 20.16, 14.79, 2.03, 19.67, 0.000, 0.000, 0.000, 14:46:57.322, L
170, 11.73, 8.88, 5.46, 15.27, 0.000, 0.000, 0.000, 14:46:57.323, L
171, 7.34, 2.52, 5.01, 5.60, 0.000, 0.000, 0.000, 14:46:57.337, L
172, 7.07, 8.87, 4.89, 13.82, 0.000, 0.000, 0.000, 14:46:57.337, L
173, 16.39, 18.64, 14.17, 18.44, 0.000, 0.000, 0.000, 14:46:57.337, L
174, 12.85, 12.63, 6.70, 15.47, 0.000, 0.000, 0.000, 14:46:57.338, L
175, 8.74, 4.23, -4.05, 5.47, 0.000, 0.000, 0.000, 14:46:57.351, L
176, 11.49, 10.70, 11.70, 17.21, 0.000, 0.000, 0.000, 14:46:57.351, L
177, 16.83, 19.95, 18.77, 19.57, 0.000, 0.000, 0.000, 14:46:57.366, L
178, 13.26, 12.45, 10.34, 13.40, 0.000, 0.000, 0.000, 14:46:57.366, L
179, 8.48, 10.12, 6.23, 6.95, 0.000, 0.000, 0.000, 14:46:57.374, L
180, 12.73, 12.41, 7.17, 10.83, 0.000, 0.000, 0.000, 14:46:57.374, L
181, 15.15, 15.76, 8.83, 20.35, 0.000, 0.000, 0.000, 14:46:57.381, L
182, 8.74, 13.18, 5.84, 11.40, 0.000, 0.000, 0.000, 14:46:57.381, L
183, 9.13, 7.06, 7.49, 4.50, 0.000, 0.000, 0.000, 14:46:57.396, L
184, 12.79, 10.69, 6.37, 15.85, 0.000, 0.000, 0.000, 14:46:57.396, L
185, 14.15, 15.95, 17.26, 21.17, 0.000, 0.000, 0.000, 14:46:57.397, L
186, 9.52, 10.14, 3.04, 13.84, 0.000, 0.000, 0.000, 14:46:57.397, L
187, 14.36, 9.58, -5.76, 7.09, 0.000, 0.000, 0.000, 14:46:57.411, L
188, 12.58, 14.94, 3.64, 15.62, 0.000, 0.000, 0.000, 14:46:57.411, L
189, 20.51, 18.99, 18.41, 19.31, 0.000, 0.000, 0.000, 14:46:57.426, L
190, 12.92, 11.29, 7.81, 13.14, 0.000, 0.000, 0.000, 14:46:57.427, L
191, 7.06, 7.14, 8.13, 5.74, 0.000, 0.000, 0.000, 14:46:57.427, L
192, 13.65, 11.52, 16.43, 14.47, 0.000, 0.000, 0.000, 14:46:57.427, L
193, 18.82, 20.43, 14.85, 20.90, 0.000, 0.000, 0.000, 14:46:57.441, L
194, 9.88, 13.16, 11.08, 11.66, 0.000, 0.000, 0.000, 14:46:57.441, L
195, 8.24, 4.46, -0.64, 6.06, 0.000, 0.000, 0.000, 14:46:57.472, L
196, 8.46, 10.32, 6.00, 11.17, 0.000, 0.000, 0.000, 14:46:57.473, L
197, 20.40, 20.41, 9.95, 17.82, 0.000, 0.000, 0.000, 14:46:57.473, L
198, 11.42, 8.24, 10.24, 11.36, 0.000, 0.000, 0.000, 14:46:57.473, L
199, 9.71, 3.74, 6.97, 7.79, 0.000, 0.000, 0.000, 14:46:57.473, L
200, 10.89, 8.73, 13.03, 13.19, 0.000, 0.000, 0.000, 14:46:57.474, L
0, 14.75, 18.12, 13.05, 18.13, 0.000, 0.000, 0.000, 14:46:57.474, L
1, 12.26, 11.23, 15.14, 12.75, 0.000, 0.000, 0.000, 14:46:57.487, L
2, 10.00, 9.44, -3.81, 6.40, 0.000, 0.000, 0.000, 14:46:57.487, L
3, 14.11, 7.31, 6.26, 13.04, 0.000, 0.000, 0.000, 14:46:57.501, L
4, 15.57, 16.82, 18.71, 17.93, 0.000, 0.000, 0.000, 14:46:57.501, L
5, 12.80, 12.30, 6.29, 12.29, 0.000, 0.000, 0.000, 14:46:57.505, L
6, 5.64, 4.27, 4.50, 3.98, 0.000, 0.000, 0.000, 14:46:57.505, L
7, 12.90, 12.11, 11.18, 16.39, 0.000, 0.000, 0.000, 14:46:57.516, L
8, 14.42, 19.17, 21.94, 19.89, 0.000, 0.000, 0.000, 14:46:57.517, L
9, 10.12, 12.34, 13.82, 12.92, 0.000, 0.000, 0.000, 14:46:57.531, L
10, 2.91, 5.42, -0.06, 8.93, 0.000, 0.000, 0.000, 14:46:57.531, L
11, 10.04, 13.83, 6.58, 13.43, 0.000, 0.000, 0.000, 14:46:57.532, L
12, 17.87, 19.41, 13.21, 21.21, 0.000, 0.000, 0.000, 14:46:57.532, L
13, 15.00, 10.80, 6.03, 11.35, 0.000, 0.000, 0.000, 14:46:57.546, L
14, 9.99, 8.82, -0.96, 9.20, 0.000, 0.000, 0.000, 14:46:57.546, L
15, 12.43, 10.37, 6.79, 14.93, 0.000, 0.000, 0.000, 14:46:57.561, L
16, 12.94, 18.57, 12.49, 21.10, 0.000, 0.000, 0.000, 14:46:57.561, L
17, 10.06, 9.61, 3.28, 11.20, 0.000, 0.000, 0.000, 14:46:57.562, L
18, 6.34, 6.02, 11.30, 8.36, 0.000, 0.000, 0.000, 14:46:57.562, L
19, 12.90, 14.92, 9.43, 14.18, 0.000, 0.000, 0.000, 14:46:57.576, L
20, 14.75, 19.31, 13.02, 23.19, 0.000, 0.000, 0.000, 14:46:57.576, L
21, 12.08, 13.37, 10.65, 11.95, 0.000, 0.000, 0.000, 14:46:57.591, L
22, 9.97, 5.52, 7.27, 5.88, 0.000, 0.000, 0.000, 14:46:57.592, L
23, 14.08, 12.15, 10.18, 12.57, 0.000, 0.000, 0.000, 14:46:57.592, L
24, 12.74, 15.33, 12.77, 20.39, 0.000, 0.000, 0.000, 14:46:57.592, L
25, 12.56, 13.37, -0.16, 10.69, 0.000, 0.000, 0.000, 14:46:57.607, L
26, 9.07, 6.57, 3.98, 6.96, 0.000, 0.000, 0.000, 14:46:57.607, L
27, 13.85, 13.53, 10.93, 14.61, 0.000, 0.000, 0.000, 14:46:57.623, L
28, 18.23, 16.95, 16.11, 21.27, 0.000, 0.000, 0.000, 14:46:57.623, L
29, 11.46, 7.66, 7.03, 11.35, 0.000, 0.000, 0.000, 14:46:57.624, L
30, 7.98, 6.82, 3.98, 6.53, 0.000, 0.000, 0.000, 14:46:57.624, L
31, 15.89, 12.92, 4.93, 16.15, 0.000, 0.000, 0.000, 14:46:57.638, L
32, 17.24, 17.72, 14.42, 20.99, 0.000, 0.000, 0.000, 14:46:57.639, L
33, 10.03, 10.21, 11.37, 12.93, 0.000, 0.000, 0.000, 14:46:57.651, L
34, 9.13, 10.76, 2.46, 5.99, 0.000, 0.000, 0.000, 14:46:57.651, L
35, 15.94, 13.67, 10.04, 17.16, 0.000, 0.000, 0.000, 14:46:57.652, L
36, 15.81, 14.19, 16.59, 16.18, 0.000, 0.000, 0.000, 14:46:57.652, L
37, 12.41, 12.41, 5.81, 12.70, 0.000, 0.000, 0.000, 14:46:57.666, L
38, 10.72, 9.00, 8.40, 5.26, 0.000, 0.000, 0.000, 14:46:57.666, L
39, 9.36, 10.68, 10.90, 13.00, 0.000, 0.000, 0.000, 14:46:57.681, L
40, 19.55, 17.71, 15.97, 19.37, 0.000, 0.000, 0.000, 14:46:57.681, L
41, 9.29, 9.59, -4.85, 13.40, 0.000, 0.000, 0.000, 14:46:57.682, L
42, 8.75, 11.28, 4.45, 12.71, 0.000, 0.000, 0.000, 14:46:57.682, L
43, 15.31, 16.23, 12.48, 15.92, 0.000, 0.000, 0.000, 14:46:57.696, L
44, 13.26, 19.91, 13.50, 18.70, 0.000, 0.000, 0.000, 14:46:57.696, L
45, 10.99, 9.35, 4.14, 14.62, 0.000, 0.000, 0.000, 14:46:57.712, L
46, 12.33, 4.86, 4.25, 9.87, 0.000, 0.000, 0.000, 14:46:57.712, L
47, 8.99, 10.96, 9.39, 12.44, 0.000, 0.000, 0.000, 14:46:57.712, L
48, 10.02, 10.48, 7.45, 17.27, 0.000, 0.000, 0.000, 14:46:57.712, L
49, 10.37, 9.68, 10.81, 8.33, 0.000, 0.000, 0.000, 14:46:57.726, L
50, 8.48, 7.53, 8.38, 5.07, 0.000, 0.000, 0.000, 14:46:57.726, L
51, 13.03, 11.62, 13.73, 16.02, 0.000, 0.000, 0.000, 14:46:57.741, L
52, 15.34, 17.23, 13.97, 18.79, 0.000, 0.000, 0.000, 14:46:57.742, L
53, 12.50, 5.09, -0.91, 11.24, 0.000, 0.000, 0.000, 14:46:57.742, L
54, 7.43, 6.51, -2.74, 7.83, 0.000, 0.000, 0.000, 14:46:57.742, L
55, 15.15, 12.62, 16.08, 10.87, 0.000, 0.000, 0.000, 14:46:57.757, L
56, 13.16, 18.86, 10.77, 20.62, 0.000, 0.000, 0.000, 14:46:57.757, L
57, 10.58, 6.97, 2.92, 8.89, 0.000, 0.000, 0.000, 14:46:57.773, L
58, 7.87, 5.65, -12.61, 5.05, 0.000, 0.000, 0.000, 14:46:57.773, L
59, 9.24, 11.84, 13.43, 15.37, 0.000, 0.000, 0.000, 14:46:57.773, L
60, 14.41, 16.02, 13.25, 15.00, 0.000, 0.000, 0.000, 14:46:57.774, L
61, 11.78, 9.10, 9.58, 11.72, 0.000, 0.000, 0.000, 14:46:57.787, L
62, 9.47, 7.14, 6.04, 6.37, 0.000, 0.000, 0.000, 14:46:57.787, L
63, 14.43, 16.64, 12.22, 17.13, 0.000, 0.000, 0.000, 14:46:57.801, L
64, 12.87, 18.79, 8.81, 18.70, 0.000, 0.000, 0.000, 14:46:57.801, L
65, 6.67, 6.59, -1.29, 10.43, 0.000, 0.000, 0.000, 14:46:57.802, L
66, 14.05, 8.20, 8.43, 5.10, 0.000, 0.000, 0.000, 14:46:57.802, L
67, 16.56, 12.26, 17.30, 13.60, 0.000, 0.000, 0.000, 14:46:57.817, L
68, 17.74, 17.75, 18.33, 20.88, 0.000, 0.000, 0.000, 14:46:57.817, L
69, 13.79, 11.40, 5.10, 14.95, 0.000, 0.000, 0.000, 14:46:57.831, L
70, 9.59, 5.28, 9.75, 9.60, 0.000, 0.000, 0.000, 14:46:57.832, L
71, 14.48, 15.18, 11.13, 13.53, 0.000, 0.000, 0.000, 14:46:57.832, L
72, 16.29, 19.21, 16.12, 19.12, 0.000, 0.000, 0.000, 14:46:57.832, L
73, 9.03, 10.27, 11.25, 11.60, 0.000, 0.000, 0.000, 14:46:57.846, L
74, 8.15, 8.09, 10.92, 2.13, 0.000, 0.000, 0.000, 14:46:57.846, L
75, 16.92, 16.49, 12.17, 13.79, 0.000, 0.000, 0.000, 14:46:57.862, L
76, 19.36, 16.90, 13.64, 19.15, 0.000, 0.000, 0.000, 14:46:57.862, L
77, 9.15, 9.21, -0.44, 8.96, 0.000, 0.000, 0.000, 14:46:57.862, L
78, 8.57, 6.42, -6.33, 7.99, 0.000, 0.000, 0.000, 14:46:57.862, L
79, 11.51, 16.04, 5.62, 17.23, 0.000, 0.000, 0.000, 14:46:57.876, L
80, 13.95, 15.58, 19.52, 19.39, 0.000, 0.000, 0.000, 14:46:57.876, L
81, 8.34, 7.14, 7.70, 12.86, 0.000, 0.000, 0.000, 14:46:57.891, L
82, 4.75, 4.60, 14.19, 8.43, 0.000, 0.000, 0.000, 14:46:57.891, L
83, 14.46, 11.96, 9.28, 14.82, 0.000, 0.000, 0.000, 14:46:57.892, L
84, 18.15, 17.36, 10.02, 19.26, 0.000, 0.000, 0.000, 14:46:57.892, L
85, 10.24, 12.43, 7.56, 10.41, 0.000, 0.000, 0.000, 14:46:57.907, L
86, 8.15, 5.15, 3.83, 9.18, 0.000, 0.000, 0.000, 14:46:57.907, L
87, 15.99, 10.24, 8.64, 19.40, 0.000, 0.000, 0.000, 14:46:57.923, L
88, 17.27, 17.07, 10.41, 14.88, 0.000, 0.000, 0.000, 14:46:57.923, L
89, 11.21, 10.28, -2.53, 12.38, 0.000, 0.000, 0.000, 14:46:57.923, L
90, 9.95, 8.21, 1.59, 10.46, 0.000, 0.000, 0.000, 14:46:57.923, L
91, 13.82, 11.39, 11.06, 16.78, 0.000, 0.000, 0.000, 14:46:57.937, L
92, 16.05, 14.72, 11.34, 19.86, 0.000, 0.000, 0.000, 14:46:57.937, L
93, 10.56, 8.24, 4.38, 12.54, 0.000, 0.000, 0.000, 14:46:57.951, L
94, 7.09, 8.60, 6.12, 5.57, 0.000, 0.000, 0.000, 14:46:57.951, L
95, 15.89, 15.22, 13.68, 13.40, 0.000, 0.000, 0.000, 14:46:57.952, L
96, 17.25, 23.92, 20.01, 19.73, 0.000, 0.000, 0.000, 14:46:57.952, L
97, 14.39, 11.92, 9.86, 11.27, 0.000, 0.000, 0.000, 14:46:57.966, L
98, 8.89, 4.84, 0.10, 7.05, 0.000, 0.000, 0.000, 14:46:57.966, L
99, 14.02, 12.67, 11.52, 17.53, 0.000, 0.000, 0.000, 14:46:57.981, L
100, 16.18, 18.00, 16.86, 18.59, 0.000, 0.000, 0.000, 14:46:57.982, L
101, 9.18, 9.93, 8.20, 9.96, 0.000, 0.000, 0.000, 14:46:57.982, L
102, 10.24, 7.04, 1.70, 5.28, 0.000, 0.000, 0.000, 14:46:57.982, L
103, 10.82, 15.50, 11.57, 17.57, 0.000, 0.000, 0.000, 14:46:57.997, L
104, 12.49, 14.08, 16.57, 19.13, 0.000, 0.000, 0.000, 14:46:57.997, L
105, 12.10, 9.18, 2.11, 15.68, 0.000, 0.000, 0.000, 14:46:58.011, L
106, 7.88, 3.39, -1.11, 5.45, 0.000, 0.000, 0.000, 14:46:58.011, L
107, 13.37, 11.58, 6.88, 11.86, 0.000, 0.000, 0.000, 14:46:58.012, L
108, 13.02, 16.95, 17.75, 21.74, 0.000, 0.000, 0.000, 14:46:58.012, L
109, 15.40, 11.51, 12.86, 12.45, 0.000, 0.000, 0.000, 14:46:58.026, L
110, 10.56, 10.38, -0.16, 9.85, 0.000, 0.000, 0.000, 14:46:58.026, L
111, 16.62, 16.32, 10.39, 13.87, 0.000, 0.000, 0.000, 14:46:58.041, L
112, 18.66, 16.24, 10.59, 15.34, 0.000, 0.000, 0.000, 14:46:58.041, L
113, 11.26, 10.07, 2.39, 12.00, 0.000, 0.000, 0.000, 14:46:58.042, L
114, 9.23, 8.39, 3.29, 10.27, 0.000, 0.000, 0.000, 14:46:58.042, L
115, 12.29, 13.18, 11.85, 15.50, 0.000, 0.000, 0.000, 14:46:58.057, L
116, 13.44, 17.43, 18.68, 18.36, 0.000, 0.000, 0.000, 14:46:58.057, L
117, 10.81, 11.58, 8.41, 11.94, 0.000, 0.000, 0.000, 14:46:58.071, L
118, 9.42, 3.38, 8.17, 9.99, 0.000, 0.000, 0.000, 14:46:58.071, L
119, 12.97, 16.42, 15.66, 16.41, 0.000, 0.000, 0.000, 14:46:58.073, L
120, 12.36, 13.44, 19.04, 19.62, 0.000, 0.000, 0.000, 14:46:58.073, L
121, 8.59, 12.79, 3.21, 12.84, 0.000, 0.000, 0.000, 14:46:58.087, L
122, 12.07, 6.43, -0.54, 9.04, 0.000, 0.000, 0.000, 14:46:58.087, L
123, 19.15, 14.12, 14.92, 13.29, 0.000, 0.000, 0.000, 14:46:58.101, L
124, 17.44, 19.92, 9.36, 19.66, 0.000, 0.000, 0.000, 14:46:58.101, L
125, 8.14, 10.34, 11.51, 13.25, 0.000, 0.000, 0.000, 14:46:58.108, L
126, 5.27, 8.08, 0.69, 10.05, 0.000, 0.000, 0.000, 14:46:58.108, L
127, 11.78, 15.25, 14.29, 15.47, 0.000, 0.000, 0.000, 14:46:58.116, L
128, 15.50, 17.92, 10.18, 18.64, 0.000, 0.000, 0.000, 14:46:58.117, L
129, 9.06, 6.23, -0.08, 10.52, 0.000, 0.000, 0.000, 14:46:58.131, L
130, 8.93, 3.89, -3.48, 8.01, 0.000, 0.000, 0.000, 14:46:58.131, L
131, 15.16, 9.93, 20.24, 12.47, 0.000, 0.000, 0.000, 14:46:58.132, L
132, 14.21, 15.89, 4.93, 15.43, 0.000, 0.000, 0.000, 14:46:58.132, L
133, 10.08, 10.76, 3.86, 9.23, 0.000, 0.000, 0.000, 14:46:58.146, L
134, 8.57, 6.66, 3.31, 10.10, 0.000, 0.000, 0.000, 14:46:58.146, L
135, 15.13, 15.54, 6.90, 14.31, 0.000, 0.000, 0.000, 14:46:58.162, L
136, 16.55, 16.52, 6.00, 18.82, 0.000, 0.000, 0.000, 14:46:58.162, L
137, 6.52, 8.48, 4.34, 10.45, 0.000, 0.000, 0.000, 14:46:58.162, L
138, 6.53, 7.89, 2.62, 7.26, 0.000, 0.000, 0.000, 14:46:58.162, L
139, 14.52, 15.87, 13.54, 16.78, 0.000, 0.000, 0.000, 14:46:58.177, L
140, 15.24, 17.11, 12.72, 16.17, 0.000, 0.000, 0.000, 14:46:58.177, L
141, 11.34, 11.77, 7.14, 13.04, 0.000, 0.000, 0.000, 14:46:58.191, L
142, 10.24, 10.39, 2.51, 10.10, 0.000, 0.000, 0.000, 14:46:58.191, L
143, 13.30, 18.49, 15.68, 19.35, 0.000, 0.000, 0.000, 14:46:58.192, L
144, 11.17, 14.49, 12.00, 19.37, 0.000, 0.000, 0.000, 14:46:58.192, L
145, 8.98, 4.12, 5.88, 9.50, 0.000, 0.000, 0.000, 14:46:58.207, L
146, 5.99, 7.31, -0.39, 1.50, 0.000, 0.000, 0.000, 14:46:58.207, L
147, 20.64, 14.50, 15.97, 14.95, 0.000, 0.000, 0.000, 14:46:58.223, L
148, 15.12, 15.47, 19.78, 17.14, 0.000, 0.000, 0.000, 14:46:58.223, L
149, 11.06, 7.33, 10.42, 15.10, 0.000, 0.000, 0.000, 14:46:58.224, L
150, 9.53, 9.31, 5.45, 10.09, 0.000, 0.000, 0.000, 14:46:58.224, L
151, 15.54, 16.58, 11.03, 16.79, 0.000, 0.000, 0.000, 14:46:58.237, L
152, 16.82, 17.97, 9.33, 15.33, 0.000, 0.000, 0.000, 14:46:58.237, L
153, 11.80, 13.59, 10.22, 10.79, 0.000, 0.000, 0.000, 14:46:58.252, L
154, 8.33, 9.58, 10.68, 10.88, 0.000, 0.000, 0.000, 14:46:58.252, L
155, 15.15, 17.92, 13.67, 17.08, 0.000, 0.000, 0.000, 14:46:58.253, L
156, 16.31, 13.98, 17.47, 21.47, 0.000, 0.000, 0.000, 14:46:58.253, L
157, 8.65, 11.31, 3.74, 11.49, 0.000, 0.000, 0.000, 14:46:58.266, L
158, 6.16, 11.19, -1.04, 6.74, 0.000, 0.000, 0.000, 14:46:58.266, L
159, 18.10, 18.16, -2.33, 18.02, 0.000, 0.000, 0.000, 14:46:58.281, L
160, 15.58, 18.55, 12.18, 22.48, 0.000, 0.000, 0.000, 14:46:58.281, L
161, 11.03, 10.15, 3.81, 8.74, 0.000, 0.000, 0.000, 14:46:58.282, L
162, 3.74, 1.38, 3.79, 9.86, 0.000, 0.000, 0.000, 14:46:58.282, L
163, 14.53, 14.64, 12.31, 16.13, 0.000, 0.000, 0.000, 14:46:58.296, L
164, 15.16, 15.56, 15.14, 18.28, 0.000, 0.000, 0.000, 14:46:58.296, L
165, 9.21, 9.10, 8.23, 4.69, 0.000, 0.000, 0.000, 14:46:58.311, L
166, 7.81, 7.21, 1.96, 8.40, 0.000, 0.000, 0.000, 14:46:58.312, L
167, 20.05, 19.75, 19.52, 16.00, 0.000, 0.000, 0.000, 14:46:58.312, L
168, 16.14, 12.01, 13.58, 18.45, 0.000, 0.000, 0.000, 14:46:58.312, L
169, 11.87, 13.78, 3.10, 10.40, 0.000, 0.000, 0.000, 14:46:58.326, L
170, 6.94, 5.63, 5.91, 6.48, 0.000, 0.000, 0.000, 14:46:58.326, L
171, 17.59, 14.46, 14.10, 16.23, 0.000, 0.000, 0.000, 14:46:58.341, L
172, 18.98, 19.32, 8.82, 22.29, 0.000, 0.000, 0.000, 14:46:58.341, L
173, 9.40, 9.10, 2.81, 11.76, 0.000, 0.000, 0.000, 14:46:58.341, L
174, 6.51, 10.28, -5.52, 6.25, 0.000, 0.000, 0.000, 14:46:58.341, L
175, 14.87, 11.86, 6.68, 16.00, 0.000, 0.000, 0.000, 14:46:58.357, L
176, 15.93, 14.31, 21.57, 17.40, 0.000, 0.000, 0.000, 14:46:58.357, L
177, 11.31, 7.25, 8.18, 9.56, 0.000, 0.000, 0.000, 14:46:58.373, L
178, 9.27, 3.73, 2.30, 7.82, 0.000, 0.000, 0.000, 14:46:58.373, L
179, 11.54, 13.14, 12.42, 18.25, 0.000, 0.000, 0.000, 14:46:58.373, L
180, 15.38, 17.12, 20.08, 16.55, 0.000, 0.000, 0.000, 14:46:58.373, L
181, 9.41, 7.84, 1.97, 7.69, 0.000, 0.000, 0.000, 14:46:58.388, L
182, 5.77, 4.70, 10.61, 7.93, 0.000, 0.000, 0.000, 14:46:58.388, L
183, 13.64, 15.50, 13.30, 14.68, 0.000, 0.000, 0.000, 14:46:58.401, L
184, 13.75, 16.39, 12.12, 19.02, 0.000, 0.000, 0.000, 14:46:58.401, L
185, 8.54, 11.67, 9.14, 9.25, 0.000, 0.000, 0.000, 14:46:58.403, L
186, 7.33, 5.15, -1.38, 9.54, 0.000, 0.000, 0.000, 14:46:58.403, L
187, 14.92, 15.33, 15.51, 18.08, 0.000, 0.000, 0.000, 14:46:58.416, L
188, 18.08, 16.78, 10.55, 17.15, 0.000, 0.000, 0.000, 14:46:58.416, L
189, 9.76, 7.24, -0.84, 12.08, 0.000, 0.000, 0.000, 14:46:58.431, L
190, 7.05, 10.11, 7.15, 9.27, 0.000, 0.000, 0.000, 14:46:58.431, L
191, 17.83, 15.93, 11.98, 17.01, 0.000, 0.000, 0.000, 14:46:58.439, L
192, 17.07, 17.52, -1.21, 18.53, 0.000, 0.000, 0.000, 14:46:58.440, L
193, 12.09, 11.41, -1.12, 9.45, 0.000, 0.000, 0.000, 14:46:58.446, L
194, 7.50, 9.99, 2.49, 7.15, 0.000, 0.000, 0.000, 14:46:58.447, L
195, 13.53, 14.65, 11.84, 19.24, 0.000, 0.000, 0.000, 14:46:58.461, L
196, 18.59, 17.99, 22.02, 20.06, 0.000, 0.000, 0.000, 14:46:58.461, L
197, 14.15, 12.60, 5.91, 10.97, 0.000, 0.000, 0.000, 14:46:58.462, L
198, 9.73, 4.87, 3.10, 9.06, 0.000, 0.000, 0.000, 14:46:58.462, L
199, 12.14, 11.19, 9.92, 12.40, 0.000, 0.000, 0.000, 14:46:58.476, L
200, 15.83, 12.30, 16.86, 20.59, 0.000, 0.000, 0.000, 14:46:58.477, L
0, 10.42, 9.84, 8.82, 12.59, 0.000, 0.000, 0.000, 14:46:58.477, L
1, 6.76, 6.17, 7.76, 3.96, 0.000, 0.000, 0.000, 14:46:58.492, L
2, 15.10, 14.36, 13.99, 17.60, 0.000, 0.000, 0.000, 14:46:58.492, L
3, 15.00, 17.55, 13.00, 18.20, 0.000, 0.000, 0.000, 14:46:58.506, L
4, 10.98, 7.04, 4.41, 8.76, 0.000, 0.000, 0.000, 14:46:58.507, L
5, 12.76, 9.93, 8.76, 7.49, 0.000, 0.000, 0.000, 14:46:58.507, L
6, 14.38, 15.19, 13.54, 17.08, 0.000, 0.000, 0.000, 14:46:58.507, L
7, 16.29, 14.04, 4.43, 20.84, 0.000, 0.000, 0.000, 14:46:58.522, L
8, 7.72, 9.33, 4.55, 11.89, 0.000, 0.000, 0.000, 14:46:58.522, L
9, 7.78, 7.23, 0.13, 10.89, 0.000, 0.000, 0.000, 14:46:58.537, L
10, 13.26, 13.96, 8.74, 15.31, 0.000, 0.000, 0.000, 14:46:58.537, L
11, 17.72, 16.20, 15.67, 19.36, 0.000, 0.000, 0.000, 14:46:58.537, L
12, 9.49, 10.41, 13.23, 11.64, 0.000, 0.000, 0.000, 14:46:58.537, L
13, 10.80, 6.28, 1.21, 6.53, 0.000, 0.000, 0.000, 14:46:58.551, L
14, 14.79, 18.24, 15.05, 20.61, 0.000, 0.000, 0.000, 14:46:58.551, L
15, 16.83, 15.72, 16.21, 19.55, 0.000, 0.000, 0.000, 14:46:58.566, L
16, 9.87, 5.91, 3.07, 9.56, 0.000, 0.000, 0.000, 14:46:58.566, L
17, 5.65, 6.83, -4.74, 9.80, 0.000, 0.000, 0.000, 14:46:58.567, L
18, 14.43, 15.09, 9.92, 15.84, 0.000, 0.000, 0.000, 14:46:58.567, L
19, 15.28, 15.65, 20.07, 13.53, 0.000, 0.000, 0.000, 14:46:58.581, L
20, 6.99, 9.68, 7.88, 9.28, 0.000, 0.000, 0.000, 14:46:58.581, L
21, 8.79, 10.25, -3.98, 7.53, 0.000, 0.000, 0.000, 14:46:58.596, L
22, 15.72, 14.94, 6.01, 17.51, 0.000, 0.000, 0.000, 14:46:58.597, L
23, 14.50, 14.88, 9.58, 16.91, 0.000, 0.000, 0.000, 14:46:58.597, L
24, 10.58, 10.19, 5.00, 7.65, 0.000, 0.000, 0.000, 14:46:58.597, L
25, 7.29, 7.53, 1.03, 11.03, 0.000, 0.000, 0.000, 14:46:58.612, L
26, 14.80, 18.40, 14.54, 18.33, 0.000, 0.000, 0.000, 14:46:58.612, L
27, 17.71, 17.28, 17.79, 16.87, 0.000, 0.000, 0.000, 14:46:58.626, L
28, 12.61, 9.81, 11.58, 10.34, 0.000, 0.000, 0.000, 14:46:58.626, L
29, 7.69, 9.82, 15.27, 5.73, 0.000, 0.000, 0.000, 14:46:58.627, L
30, 13.13, 16.66, 13.18, 18.39, 0.000, 0.000, 0.000, 14:46:58.627, L
31, 16.65, 16.02, 13.89, 20.36, 0.000, 0.000, 0.000, 14:46:58.641, L
32, 12.45, 6.57, 0.16, 9.45, 0.000, 0.000, 0.000, 14:46:58.641, L
33, 3.69, 5.82, 14.72, 4.17, 0.000, 0.000, 0.000, 14:46:58.656, L
34, 15.41, 13.56, 7.33, 17.45, 0.000, 0.000, 0.000, 14:46:58.656, L
35, 16.67, 13.47, 10.56, 20.85, 0.000, 0.000, 0.000, 14:46:58.657, L
36, 8.02, 9.09, 12.72, 7.31, 0.000, 0.000, 0.000, 14:46:58.657, L
37, 8.07, 7.46, -1.60, 9.73, 0.000, 0.000, 0.000, 14:46:58.672, L
38, 8.46, 18.39, 10.59, 18.65, 0.000, 0.000, 0.000, 14:46:58.673, L
39, 17.09, 13.45, 8.36, 16.26, 0.000, 0.000, 0.000, 14:46:58.686, L
40, 14.04, 10.82, 1.12, 13.30, 0.000, 0.000, 0.000, 14:46:58.687, L
41, 7.76, 9.56, -1.09, 5.78, 0.000, 0.000, 0.000, 14:46:58.687, L
42, 17.91, 17.30, 15.37, 20.29, 0.000, 0.000, 0.000, 14:46:58.688, L
43, 16.58, 15.51, 15.53, 17.02, 0.000, 0.000, 0.000, 14:46:58.701, L
44, 13.63, 9.02, 5.30, 13.08, 0.000, 0.000, 0.000, 14:46:58.701, L
45, 9.74, 8.86, 9.84, 9.77, 0.000, 0.000, 0.000, 14:46:58.716, L
46, 16.46, 16.44, 17.59, 15.07, 0.000, 0.000, 0.000, 14:46:58.717, L
47, 13.64, 15.44, 13.84, 17.10, 0.000, 0.000, 0.000, 14:46:58.717, L
48, 10.66, 8.92, 1.37, 11.78, 0.000, 0.000, 0.000, 14:46:58.717, L
49, 6.17, 5.25, 6.35, 9.48, 0.000, 0.000, 0.000, 14:46:58.732, L
50, 16.94, 18.74, 6.53, 17.07, 0.000, 0.000, 0.000, 14:46:58.732, L
51, 16.91, 15.46, 15.37, 18.81, 0.000, 0.000, 0.000, 14:46:58.746, L
52, 11.74, 7.55, 5.85, 9.31, 0.000, 0.000, 0.000, 14:46:58.747, L
53, 6.01, 5.65, 5.36, 12.86, 0.000, 0.000, 0.000, 14:46:58.747, L
54, 11.61, 13.99, 7.80, 14.27, 0.000, 0.000, 0.000, 14:46:58.747, L
55, 20.54, 15.56, 18.87, 15.82, 0.000, 0.000, 0.000, 14:46:58.761, L
56, 11.16, 11.46, -4.49, 9.62, 0.000, 0.000, 0.000, 14:46:58.761, L
57, 8.72, 8.54, 0.19, 10.05, 0.000, 0.000, 0.000, 14:46:58.776, L
58, 16.28, 15.66, 16.96, 14.77, 0.000, 0.000, 0.000, 14:46:58.777, L
59, 14.27, 17.31, 21.00, 17.59, 0.000, 0.000, 0.000, 14:46:58.778, L
60, 7.42, 8.68, 1.48, 3.07, 0.000, 0.000, 0.000, 14:46:58.778, L
61, 11.61, 9.89, 4.48, 10.01, 0.000, 0.000, 0.000, 14:46:58.791, L
62, 10.98, 12.12, 12.78, 16.32, 0.000, 0.000, 0.000, 14:46:58.791, L
63, 17.30, 14.63, 11.21, 21.29, 0.000, 0.000, 0.000, 14:46:58.806, L
64, 6.01, 6.98, 4.50, 7.38, 0.000, 0.000, 0.000, 14:46:58.806, L
65, 8.92, 11.05, 8.01, 9.13, 0.000, 0.000, 0.000, 14:46:58.807, L
66, 12.98, 14.79, 16.47, 15.21, 0.000, 0.000, 0.000, 14:46:58.807, L
67, 13.36, 13.59, 15.64, 16.69, 0.000, 0.000, 0.000, 14:46:58.822, L
68, 11.45, 10.27, 4.01, 9.80, 0.000, 0.000, 0.000, 14:46:58.822, L
69, 11.03, 8.77, 5.21, 8.56, 0.000, 0.000, 0.000, 14:46:58.851, L
70, 14.88, 16.10, 14.02, 18.87, 0.000, 0.000, 0.000, 14:46:58.851, L
71, 16.52, 13.17, 5.68, 14.31, 0.000, 0.000, 0.000, 14:46:58.852, L
72, 6.73, 5.05, 3.66, 6.07, 0.000, 0.000, 0.000, 14:46:58.852, L
73, 9.13, 7.44, 3.89, 11.12, 0.000, 0.000, 0.000, 14:46:58.853, L
74, 18.32, 16.69, 19.45, 21.34, 0.000, 0.000, 0.000, 14:46:58.853, L
75, 18.03, 19.32, 10.39, 19.10, 0.000, 0.000, 0.000, 14:46:58.854, L
76, 11.45, 7.73, 5.36, 7.65, 0.000, 0.000, 0.000, 14:46:58.854, L
77, 10.85, 9.68, 9.73, 8.39, 0.000, 0.000, 0.000, 14:46:58.866, L
78, 17.30, 18.35, 21.24, 16.43, 0.000, 0.000, 0.000, 14:46:58.866, L
79, 10.46, 12.72, 10.56, 16.55, 0.000, 0.000, 0.000, 14:46:58.881, L
80, 11.57, 9.34, 7.74, 10.01, 0.000, 0.000, 0.000, 14:46:58.881, L
81, 7.48, 9.27, 1.81, 10.19, 0.000, 0.000, 0.000, 14:46:58.896, L
82, 13.08, 14.20, 3.04, 17.47, 0.000, 0.000, 0.000, 14:46:58.896, L
83, 13.96, 12.04, 9.86, 18.36, 0.000, 0.000, 0.000, 14:46:58.897, L
84, 5.86, 7.86, 4.96, 9.73, 0.000, 0.000, 0.000, 14:46:58.897, L
85, 10.78, 12.64, 6.77, 6.12, 0.000, 0.000, 0.000, 14:46:58.911, L
86, 16.15, 14.26, 9.48, 16.64, 0.000, 0.000, 0.000, 14:46:58.912, L
87, 11.02, 13.51, 11.59, 20.11, 0.000, 0.000, 0.000, 14:46:58.926, L
88, 12.70, 9.40, 6.86, 11.12, 0.000, 0.000, 0.000, 14:46:58.926, L
89, 10.02, 8.34, 0.67, 7.79, 0.000, 0.000, 0.000, 14:46:58.927, L
90, 16.90, 18.61, 11.96, 22.42, 0.000, 0.000, 0.000, 14:46:58.927, L
91, 16.45, 14.91, 18.46, 11.90, 0.000, 0.000, 0.000, 14:46:58.941, L
92, 7.47, 8.86, 5.51, 13.44, 0.000, 0.000, 0.000, 14:46:58.941, L
93, 7.59, 7.51, -5.32, 8.84, 0.000, 0.000, 0.000, 14:46:58.957, L
94, 18.06, 12.21, 13.68, 16.10, 0.000, 0.000, 0.000, 14:46:58.957, L
95, 13.31, 12.55, 14.87, 17.30, 0.000, 0.000, 0.000, 14:46:58.957, L
96, 7.88, 7.38, 1.33, 10.09, 0.000, 0.000, 0.000, 14:46:58.957, L
97, 9.58, 9.68, 4.58, 13.19, 0.000, 0.000, 0.000, 14:46:58.972, L
98, 17.99, 20.37, 12.24, 19.36, 0.000, 0.000, 0.000, 14:46:58.973, L
99, 14.98, 17.00, 11.38, 22.42, 0.000, 0.000, 0.000, 14:46:58.987, L
100, 8.72, 10.28, 2.70, 9.45, 0.000, 0.000, 0.000, 14:46:58.987, L
101, 8.49, 9.01, 10.07, 10.76, 0.000, 0.000, 0.000, 14:46:58.987, L
102, 17.43, 15.20, 8.15, 17.57, 0.000, 0.000, 0.000, 14:46:58.987, L
103, 15.92, 13.71, 15.65, 14.38, 0.000, 0.000, 0.000, 14:46:59.001, L
104, 6.94, 8.60, 6.17, 3.15, 0.000, 0.000, 0.000, 14:46:59.001, L
105, 10.43, 10.03, -2.06, 8.32, 0.000, 0.000, 0.000, 14:46:59.016, L
106, 13.82, 14.29, 11.46, 21.56, 0.000, 0.000, 0.000, 14:46:59.016, L
107, 14.57, 15.19, 21.47, 15.35, 0.000, 0.000, 0.000, 14:46:59.017, L
108, 8.65, 9.62, 8.99, 6.85, 0.000, 0.000, 0.000, 14:46:59.017, L
109, 9.87, 9.24, 0.11, 9.10, 0.000, 0.000, 0.000, 14:46:59.032, L
110, 15.39, 20.50, 14.16, 16.86, 0.000, 0.000, 0.000, 14:46:59.032, L
111, 12.37, 13.19, 10.22, 15.53, 0.000, 0.000, 0.000, 14:46:59.046, L
112, 9.21, 7.00, 6.93, 10.20, 0.000, 0.000, 0.000, 14:46:59.046, L
113, 9.88, 11.09, 3.57, 11.73, 0.000, 0.000, 0.000, 14:46:59.047, L
114, 11.30, 18.00, 10.96, 18.97, 0.000, 0.000, 0.000, 14:46:59.047, L
115, 20.40, 19.00, 18.10, 16.50, 0.000, 0.000, 0.000, 14:46:59.061, L
116, 7.11, 6.01, 10.46, 6.88, 0.000, 0.000, 0.000, 14:46:59.061, L
117, 9.42, 10.75, 1.66, 9.05, 0.000, 0.000, 0.000, 14:46:59.076, L
118, 15.14, 16.48, 9.32, 17.18, 0.000, 0.000, 0.000, 14:46:59.076, L
119, 13.54, 14.86, 9.99, 15.40, 0.000, 0.000, 0.000, 14:46:59.076, L
120, 8.75, 7.37, 1.91, 9.06, 0.000, 0.000, 0.000, 14:46:59.076, L
121, 10.26, 3.97, 2.15, 6.21, 0.000, 0.000, 0.000, 14:46:59.091, L
122, 13.41, 18.32, 10.69, 14.31, 0.000, 0.000, 0.000, 14:46:59.091, L
123, 14.25, 15.04, 11.74, 15.94, 0.000, 0.000, 0.000, 14:46:59.107, L
124, 10.31, 10.24, 2.23, 9.87, 0.000, 0.000, 0.000, 14:46:59.107, L
125, 7.72, 7.96, 2.84, 12.40, 0.000, 0.000, 0.000, 14:46:59.107, L
126, 14.45, 15.82, 10.91, 18.52, 0.000, 0.000, 0.000, 14:46:59.107, L
127, 16.33, 12.86, 16.32, 20.11, 0.000, 0.000, 0.000, 14:46:59.123, L
128, 6.35, 5.92, 4.52, 9.45, 0.000, 0.000, 0.000, 14:46:59.124, L
129, 11.13, 6.38, 2.41, 9.07, 0.000, 0.000, 0.000, 14:46:59.138, L
130, 13.70, 14.47, 13.82, 12.66, 0.000, 0.000, 0.000, 14:46:59.139, L
131, 15.02, 16.85, 11.11, 19.59, 0.000, 0.000, 0.000, 14:46:59.140, L
132, 7.72, 9.16, 7.83, 13.57, 0.000, 0.000, 0.000, 14:46:59.140, L
133, 12.82, 9.18, 10.49, 7.84, 0.000, 0.000, 0.000, 14:46:59.151, L
134, 14.46, 15.08, 6.26, 10.82, 0.000, 0.000, 0.000, 14:46:59.151, L
135, 14.82, 15.61, 12.51, 19.09, 0.000, 0.000, 0.000, 14:46:59.166, L
136, 5.00, 6.02, 1.07, 5.92, 0.000, 0.000, 0.000, 14:46:59.166, L
137, 4.68, 5.27, 2.23, 9.87, 0.000, 0.000, 0.000, 14:46:59.167, L
138, 13.42, 13.73, 13.25, 16.30, 0.000, 0.000, 0.000, 14:46:59.167, L
139, 16.35, 12.21, 11.65, 19.49, 0.000, 0.000, 0.000, 14:46:59.181, L
140, 10.60, 8.56, 7.24, 13.53, 0.000, 0.000, 0.000, 14:46:59.181, L
141, 10.77, 9.16, 8.81, 10.61, 0.000, 0.000, 0.000, 14:46:59.196, L
142, 16.44, 13.31, 10.96, 14.83, 0.000, 0.000, 0.000, 14:46:59.197, L
143, 13.49, 17.00, 4.82, 15.37, 0.000, 0.000, 0.000, 14:46:59.197, L
144, 11.52, 10.69, 5.14, 6.81, 0.000, 0.000, 0.000, 14:46:59.197, L
145, 8.18, 7.75, 9.23, 7.63, 0.000, 0.000, 0.000, 14:46:59.211, L
146, 16.37, 14.28, 8.22, 19.42, 0.000, 0.000, 0.000, 14:46:59.212, L
147, 12.40, 13.32, 11.18, 17.63, 0.000, 0.000, 0.000, 14:46:59.226, L
148, 14.31, 9.24, 6.93, 12.12, 0.000, 0.000, 0.000, 14:46:59.226, L
149, 11.00, 9.99, 5.14, 12.29, 0.000, 0.000, 0.000, 14:46:59.227, L
150, 16.40, 16.45, 8.83, 15.26, 0.000, 0.000, 0.000, 14:46:59.227, L
151, 12.63, 15.55, 12.01, 20.42, 0.000, 0.000, 0.000, 14:46:59.242, L
152, 9.30, 9.47, 8.84, 8.89, 0.000, 0.000, 0.000, 14:46:59.242, L
153, 8.88, 9.90, 4.00, 9.39, 0.000, 0.000, 0.000, 14:46:59.257, L
154, 13.86, 11.79, 15.33, 17.04, 0.000, 0.000, 0.000, 14:46:59.257, L
155, 11.59, 11.30, 3.84, 17.95, 0.000, 0.000, 0.000, 14:46:59.263, L
156, 12.24, 10.10, 11.45, 9.66, 0.000, 0.000, 0.000, 14:46:59.264, L
157, 15.18, 9.76, 14.83, 8.19, 0.000, 0.000, 0.000, 14:46:59.272, L
158, 18.85, 21.83, 12.56, 21.60, 0.000, 0.000, 0.000, 14:46:59.272, L
159, 12.37, 16.66, 8.74, 15.62, 0.000, 0.000, 0.000, 14:46:59.287, L
160, 10.94, 7.02, 3.25, 13.28, 0.000, 0.000, 0.000, 14:46:59.287, L
161, 5.28, 6.04, 12.45, 8.98, 0.000, 0.000, 0.000, 14:46:59.288, L
162, 17.13, 18.29, 7.10, 20.30, 0.000, 0.000, 0.000, 14:46:59.288, L
163, 15.01, 16.45, 5.80, 11.66, 0.000, 0.000, 0.000, 14:46:59.302, L
164, 8.66, 6.45, 1.19, 12.58, 0.000, 0.000, 0.000, 14:46:59.302, L
165, 13.55, 8.23, 8.59, 7.39, 0.000, 0.000, 0.000, 14:46:59.316, L
166, 14.61, 17.49, 7.66, 17.01, 0.000, 0.000, 0.000, 14:46:59.316, L
167, 14.07, 16.81, 9.55, 13.95, 0.000, 0.000, 0.000, 14:46:59.317, L
168, 8.57, 4.69, -3.00, 6.00, 0.000, 0.000, 0.000, 14:46:59.317, L
169, 9.09, 6.16, 2.79, 10.94, 0.000, 0.000, 0.000, 14:46:59.331, L
170, 15.96, 18.33, 17.52, 19.34, 0.000, 0.000, 0.000, 14:46:59.332, L
171, 11.89, 15.07, 17.38, 17.15, 0.000, 0.000, 0.000, 14:46:59.346, L
172, 7.04, 9.35, 8.54, 8.19, 0.000, 0.000, 0.000, 14:46:59.347, L
173, 10.12, 14.00, 9.69, 14.51, 0.000, 0.000, 0.000, 14:46:59.347, L
174, 10.16, 16.52, 9.49, 13.77, 0.000, 0.000, 0.000, 14:46:59.347, L
175, 13.53, 13.26, 13.53, 16.59, 0.000, 0.000, 0.000, 14:46:59.361, L
176, 6.28, 6.42, 9.71, 4.12, 0.000, 0.000, 0.000, 14:46:59.361, L
177, 11.95, 7.44, 3.07, 10.83, 0.000, 0.000, 0.000, 14:46:59.376, L
178, 13.89, 18.10, 14.44, 19.43, 0.000, 0.000, 0.000, 14:46:59.377, L
179, 17.68, 13.43, 11.27, 15.08, 0.000, 0.000, 0.000, 14:46:59.377, L
180, 6.72, 4.73, 1.96, 8.64, 0.000, 0.000, 0.000, 14:46:59.377, L
181, 10.49, 11.56, 4.68, 9.50, 0.000, 0.000, 0.000, 14:46:59.407, L
182, 14.18, 14.25, 10.65, 19.62, 0.000, 0.000, 0.000, 14:46:59.407, L
183, 12.08, 14.40, 15.67, 17.18, 0.000, 0.000, 0.000, 14:46:59.407, L
184, 10.19, 6.60, 8.39, 11.91, 0.000, 0.000, 0.000, 14:46:59.407, L
185, 9.15, 6.55, 3.71, 6.91, 0.000, 0.000, 0.000, 14:46:59.407, L
186, 14.52, 15.67, 8.14, 16.38, 0.000, 0.000, 0.000, 14:46:59.407, L
187, 14.55, 13.03, 10.91, 17.42, 0.000, 0.000, 0.000, 14:46:59.423, L
188, 13.03, 9.66, 8.34, 11.07, 0.000, 0.000, 0.000, 14:46:59.423, L
189, 7.61, 6.14, 1.17, 8.93, 0.000, 0.000, 0.000, 14:46:59.437, L
190, 14.16, 13.72, 12.32, 17.38, 0.000, 0.000, 0.000, 14:46:59.437, L
191, 14.34, 13.20, 12.11, 15.08, 0.000, 0.000, 0.000, 14:46:59.437, L
192, 12.72, 10.19, 0.14, 8.91, 0.000, 0.000, 0.000, 14:46:59.437, L
193, 5.54, 9.06, -0.42, 8.27, 0.000, 0.000, 0.000, 14:46:59.452, L
194, 19.92, 16.17, 8.67, 17.23, 0.000, 0.000, 0.000, 14:46:59.452, L
195, 15.79, 17.66, 13.87, 18.17, 0.000, 0.000, 0.000, 14:46:59.466, L
196, 8.84, 10.46, 7.00, 10.78, 0.000, 0.000, 0.000, 14:46:59.466, L
197, 11.67, 9.33, 10.48, 12.61, 0.000, 0.000, 0.000, 14:46:59.467, L
198, 14.46, 17.39, 14.11, 19.44, 0.000, 0.000, 0.000, 14:46:59.467, L
199, 14.91, 15.70, 12.72, 16.54, 0.000, 0.000, 0.000, 14:46:59.481, L
200, 6.36, 6.05, 2.11, 11.90, 0.000, 0.000, 0.000, 14:46:59.481, L
0, 10.29, 7.33, 5.26, 10.80, 0.000, 0.000, 0.000, 14:46:59.482, L
1, 17.35, 18.26, 12.32, 20.40, 0.000, 0.000, 0.000, 14:46:59.496, L
2, 13.03, 16.30, 8.38, 15.53, 0.000, 0.000, 0.000, 14:46:59.496, L
3, 10.00, 6.18, 0.73, 3.78, 0.000, 0.000, 0.000, 14:46:59.511, L
4, 12.47, 7.77, 4.15, 8.41, 0.000, 0.000, 0.000, 14:46:59.511, L
5, 15.72, 16.06, 14.21, 20.14, 0.000, 0.000, 0.000, 14:46:59.512, L
6, 13.46, 14.26, 8.81, 12.21, 0.000, 0.000, 0.000, 14:46:59.512, L
7, 5.64, 6.67, 2.41, 9.40, 0.000, 0.000, 0.000, 14:46:59.526, L
8, 9.24, 12.13, 5.46, 8.67, 0.000, 0.000, 0.000, 14:46:59.526, L
9, 16.73, 16.65, 14.17, 23.38, 0.000, 0.000, 0.000, 14:46:59.549, L
10, 13.48, 16.15, 5.00, 18.31, 0.000, 0.000, 0.000, 14:46:59.549, L
11, 10.80, 6.80, 6.01, 10.20, 0.000, 0.000, 0.000, 14:46:59.549, L
12, 13.13, 7.80, 6.69, 9.31, 0.000, 0.000, 0.000, 14:46:59.550, L
13, 17.66, 17.62, 13.49, 20.09, 0.000, 0.000, 0.000, 14:46:59.556, L
14, 17.60, 17.79, 14.45, 15.25, 0.000, 0.000, 0.000, 14:46:59.556, L
15, 9.29, 13.90, 6.58, 10.37, 0.000, 0.000, 0.000, 14:46:59.573, L
16, 7.59, 6.79, 3.45, 7.92, 0.000, 0.000, 0.000, 14:46:59.573, L
17, 14.55, 13.24, 15.56, 22.98, 0.000, 0.000, 0.000, 14:46:59.573, L
18, 11.94, 12.68, 9.75, 13.04, 0.000, 0.000, 0.000, 14:46:59.573, L
19, 11.84, 12.32, 4.96, 9.90, 0.000, 0.000, 0.000, 14:46:59.587, L
20, 12.67, 12.78, 14.97, 13.69, 0.000, 0.000, 0.000, 14:46:59.587, L
21, 19.46, 15.85, 20.24, 18.74, 0.000, 0.000, 0.000, 14:46:59.606, L
22, 14.47, 8.90, 11.15, 14.00, 0.000, 0.000, 0.000, 14:46:59.606, L
23, 8.41, 4.56, 0.52, 9.94, 0.000, 0.000, 0.000, 14:46:59.606, L
24, 9.58, 12.49, 9.17, 9.28, 0.000, 0.000, 0.000, 14:46:59.606, L
25, 14.74, 15.27, 15.22, 12.40, 0.000, 0.000, 0.000, 14:46:59.617, L
26, 12.88, 14.13, 9.75, 16.76, 0.000, 0.000, 0.000, 14:46:59.617, L
27, 9.13, 7.64, 4.73, 7.81, 0.000, 0.000, 0.000, 14:46:59.631, L
28, 14.39, 11.96, 3.10, 9.82, 0.000, 0.000, 0.000, 14:46:59.631, L
29, 15.95, 17.89, 14.80, 19.00, 0.000, 0.000, 0.000, 14:46:59.639, L
30, 9.45, 14.67, 6.94, 18.57, 0.000, 0.000, 0.000, 14:46:59.639, L
31, 6.54, 5.55, 4.28, 3.73, 0.000, 0.000, 0.000, 14:46:59.647, L
32, 8.11, 11.94, 1.95, 11.55, 0.000, 0.000, 0.000, 14:46:59.647, L
33, 17.93, 19.03, 12.30, 16.31, 0.000, 0.000, 0.000, 14:46:59.662, L
34, 15.61, 14.93, 12.63, 18.60, 0.000, 0.000, 0.000, 14:46:59.662, L
35, 10.74, 7.94, 4.33, 11.89, 0.000, 0.000, 0.000, 14:46:59.662, L
36, 13.49, 9.68, 3.98, 8.01, 0.000, 0.000, 0.000, 14:46:59.662, L
37, 15.41, 18.09, 12.55, 17.80, 0.000, 0.000, 0.000, 14:46:59.676, L
38, 14.88, 15.84, 13.09, 12.56, 0.000, 0.000, 0.000, 14:46:59.676, L
39, 7.87, 12.33, 6.01, 8.04, 0.000, 0.000, 0.000, 14:46:59.691, L
40, 8.82, 7.86, 6.14, 11.47, 0.000, 0.000, 0.000, 14:46:59.692, L
41, 18.26, 16.49, 12.68, 22.56, 0.000, 0.000, 0.000, 14:46:59.692, L
42, 13.57, 12.56, 7.29, 13.19, 0.000, 0.000, 0.000, 14:46:59.692, L
43, 5.60, 7.44, 4.01, 8.33, 0.000, 0.000, 0.000, 14:46:59.707, L
44, 10.43, 5.86, 9.17, 11.29, 0.000, 0.000, 0.000, 14:46:59.707, L
45, 15.10, 17.92, 13.87, 21.59, 0.000, 0.000, 0.000, 14:46:59.722, L
46, 15.52, 14.16, 7.25, 18.19, 0.000, 0.000, 0.000, 14:46:59.723, L
47, 4.05, 6.39, 2.25, 6.13, 0.000, 0.000, 0.000, 14:46:59.723, L
48, 7.64, 11.38, 9.16, 12.38, 0.000, 0.000, 0.000, 14:46:59.723, L
49, 17.39, 14.41, 19.24, 18.30, 0.000, 0.000, 0.000, 14:46:59.736, L
50, 15.95, 16.53, 11.91, 16.99, 0.000, 0.000, 0.000, 14:46:59.737, L
51, 8.79, 7.22, 6.34, 8.02, 0.000, 0.000, 0.000, 14:46:59.751, L
52, 11.35, 10.17, 7.92, 16.13, 0.000, 0.000, 0.000, 14:46:59.751, L
53, 14.04, 15.79, 6.82, 17.64, 0.000, 0.000, 0.000, 14:46:59.753, L
54, 16.03, 17.20, 14.73, 16.91, 0.000, 0.000, 0.000, 14:46:59.753, L
55, 8.84, 7.86, 4.56, 7.56, 0.000, 0.000, 0.000, 14:46:59.767, L
56, 8.36, 8.59, 4.78, 8.80, 0.000, 0.000, 0.000, 14:46:59.767, L
57, 15.26, 13.52, 9.84, 18.28, 0.000, 0.000, 0.000, 14:46:59.781, L
58, 14.81, 12.76, -1.22, 15.87, 0.000, 0.000, 0.000, 14:46:59.782, L
59, 5.36, 4.13, -2.17, 4.73, 0.000, 0.000, 0.000, 14:46:59.782, L
60, 11.34, 12.33, 0.16, 10.35, 0.000, 0.000, 0.000, 14:46:59.782, L
61, 18.93, 17.30, 13.33, 19.40, 0.000, 0.000, 0.000, 14:46:59.796, L
62, 11.89, 11.40, 14.77, 15.07, 0.000, 0.000, 0.000, 14:46:59.797, L
63, 8.16, 5.34, 1.24, 8.39, 0.000, 0.000, 0.000, 14:46:59.811, L
64, 9.70, 9.82, 8.48, 11.28, 0.000, 0.000, 0.000, 14:46:59.811, L
65, 16.29, 16.90, 17.99, 19.80, 0.000, 0.000, 0.000, 14:46:59.812, L
66, 12.51, 13.89, 6.74, 18.36, 0.000, 0.000, 0.000, 14:46:59.812, L
67, 8.74, 5.00, 3.31, 10.88, 0.000, 0.000, 0.000, 14:46:59.826, L
68, 11.89, 12.88, 10.01, 15.66, 0.000, 0.000, 0.000, 14:46:59.826, L
69, 13.90, 17.80, 16.65, 20.40, 0.000, 0.000, 0.000, 14:46:59.841, L
70, 14.65, 15.53, 13.95, 12.25, 0.000, 0.000, 0.000, 14:46:59.841, L
71, 12.43, 8.61, 5.99, 4.35, 0.000, 0.000, 0.000, 14:46:59.842, L
72, 7.04, 8.03, 8.55, 10.60, 0.000, 0.000, 0.000, 14:46:59.842, L
73, 12.96, 14.77, 12.05, 15.19, 0.000, 0.000, 0.000, 14:46:59.856, L
74, 16.70, 17.35, 11.37, 17.99, 0.000, 0.000, 0.000, 14:46:59.856, L
75, 9.59, 7.89, 5.57, 8.40, 0.000, 0.000, 0.000, 14:46:59.871, L
76, 15.16, 7.48, 2.59, 14.51, 0.000, 0.000, 0.000, 14:46:59.872, L
77, 13.15, 16.98, 10.82, 17.04, 0.000, 0.000, 0.000, 14:46:59.873, L
78, 12.00, 14.83, 9.61, 14.78, 0.000, 0.000, 0.000, 14:46:59.874, L
79, 10.90, 7.66, -2.05, 5.59, 0.000, 0.000, 0.000, 14:46:59.888, L
80, 8.55, 5.00, 0.96, 5.21, 0.000, 0.000, 0.000, 14:46:59.889, L
81, 13.50, 14.19, 22.95, 20.27, 0.000, 0.000, 0.000, 14:46:59.901, L
82, 15.77, 17.71, 19.05, 17.10, 0.000, 0.000, 0.000, 14:46:59.901, L
83, 7.00, 6.64, 5.75, 6.93, 0.000, 0.000, 0.000, 14:46:59.903, L
84, 9.62, 12.32, 8.88, 13.07, 0.000, 0.000, 0.000, 14:46:59.903, L
85, 16.88, 17.55, 15.55, 18.25, 0.000, 0.000, 0.000, 14:46:59.923, L
86, 9.76, 11.27, 16.87, 16.61, 0.000, 0.000, 0.000, 14:46:59.923, L
87, 8.06, 6.91, 9.38, 6.78, 0.000, 0.000, 0.000, 14:46:59.931, L
88, 12.90, 10.35, 10.19, 8.03, 0.000, 0.000, 0.000, 14:46:59.932, L
89, 16.50, 13.83, 3.50, 19.36, 0.000, 0.000, 0.000, 14:46:59.932, L
90, 14.34, 12.04, 8.41, 14.89, 0.000, 0.000, 0.000, 14:46:59.932, L
91, 7.12, 9.13, 4.58, 7.20, 0.000, 0.000, 0.000, 14:46:59.961, L
92, 10.58, 8.73, 10.67, 8.96, 0.000, 0.000, 0.000, 14:46:59.961, L
93, 17.56, 17.53, 4.80, 17.24, 0.000, 0.000, 0.000, 14:46:59.962, L
94, 14.44, 15.55, 8.79, 14.11, 0.000, 0.000, 0.000, 14:46:59.962, L
95, 11.57, 10.63, -1.66, 11.43, 0.000, 0.000, 0.000, 14:46:59.963, L
96, 14.25, 12.35, 8.32, 12.91, 0.000, 0.000, 0.000, 14:46:59.963, L
97, 17.83, 19.42, 9.17, 22.96, 0.000, 0.000, 0.000, 14:46:59.976, L
98, 12.26, 14.81, 12.92, 18.32, 0.000, 0.000, 0.000, 14:46:59.976, L
99, 11.94, 5.76, 5.28, 11.06, 0.000, 0.000, 0.000, 14:46:59.991, L
100, 10.42, 8.33, 6.61, 11.19, 0.000, 0.000, 0.000, 14:46:59.991, L
101, 12.46, 18.38, 8.72, 20.05, 0.000, 0.000, 0.000, 14:46:59.992, L
102, 13.26, 13.65, 5.04, 16.95, 0.000, 0.000, 0.000, 14:46:59.992, L
103, 4.83, 5.79, 7.49, 9.04, 0.000, 0.000, 0.000, 14:47:00.008, L
104, 7.48, 8.11, 10.45, 10.61, 0.000, 0.000, 0.000, 14:47:00.008, L
105, 13.38, 16.00, 19.06, 19.37, 0.000, 0.000, 0.000, 14:47:00.023, L
106, 11.85, 17.56, 9.33, 9.87, 0.000, 0.000, 0.000, 14:47:00.023, L
107, 7.19, 4.29, -0.74, 8.87, 0.000, 0.000, 0.000, 14:47:00.023, L
108, 4.62, 7.51, 11.74, 7.10, 0.000, 0.000, 0.000, 14:47:00.023, L
109, 18.21, 17.33, 24.85, 16.39, 0.000, 0.000, 0.000, 14:47:00.037, L
110, 10.22, 15.94, 5.59, 16.45, 0.000, 0.000, 0.000, 14:47:00.037, L
111, 7.54, 7.00, -3.06, 7.25, 0.000, 0.000, 0.000, 14:47:00.051, L
112, 17.76, 14.82, 7.82, 12.20, 0.000, 0.000, 0.000, 14:47:00.051, L
113, 17.13, 20.43, 11.41, 19.51, 0.000, 0.000, 0.000, 14:47:00.052, L
114, 14.43, 13.36, 14.61, 13.60, 0.000, 0.000, 0.000, 14:47:00.053, L
115, 7.70, 7.18, -3.34, 9.99, 0.000, 0.000, 0.000, 14:47:00.067, L
116, 7.23, 8.59, 10.15, 13.22, 0.000, 0.000, 0.000, 14:47:00.067, L
117, 21.40, 16.89, 7.15, 20.91, 0.000, 0.000, 0.000, 14:47:00.081, L
118, 12.62, 9.11, 5.07, 10.11, 0.000, 0.000, 0.000, 14:47:00.082, L
119, 8.33, 7.86, 8.53, 9.71, 0.000, 0.000, 0.000, 14:47:00.082, L
120, 10.36, 9.56, 3.54, 8.99, 0.000, 0.000, 0.000, 14:47:00.082, L
121, 15.07, 19.64, 16.22, 18.05, 0.000, 0.000, 0.000, 14:47:00.096, L
122, 11.38, 13.54, 12.36, 7.95, 0.000, 0.000, 0.000, 14:47:00.096, L
123, 13.70, 4.83, 4.88, 7.99, 0.000, 0.000, 0.000, 14:47:00.111, L
124, 9.38, 8.59, 12.97, 11.49, 0.000, 0.000, 0.000, 14:47:00.111, L
125, 15.47, 15.65, 15.23, 18.44, 0.000, 0.000, 0.000, 14:47:00.112, L
126, 13.33, 12.89, 8.12, 16.50, 0.000, 0.000, 0.000, 14:47:00.112, L
127, 9.24, 6.43, -0.53, 10.97, 0.000, 0.000, 0.000, 14:47:00.126, L
128, 12.07, 9.99, 4.81, 12.55, 0.000, 0.000, 0.000, 14:47:00.126, L
129, 16.48, 19.21, 12.52, 18.18, 0.000, 0.000, 0.000, 14:47:00.141, L
130, 16.51, 15.28, 12.63, 18.25, 0.000, 0.000, 0.000, 14:47:00.141, L
131, 5.08, 8.75, 2.71, 8.46, 0.000, 0.000, 0.000, 14:47:00.142, L
132, 9.56, 7.41, 5.38, 10.22, 0.000, 0.000, 0.000, 14:47:00.142, L
133, 13.31, 14.82, 8.60, 17.95, 0.000, 0.000, 0.000, 14:47:00.156, L
134, 12.32, 13.53, 10.24, 14.93, 0.000, 0.000, 0.000, 14:47:00.156, L
135, 10.56, 6.43, -2.29, 9.70, 0.000, 0.000, 0.000, 14:47:00.173, L
136, 11.34, 8.40, 8.02, 10.85, 0.000, 0.000, 0.000, 14:47:00.173, L
137, 15.14, 16.09, 17.00, 16.46, 0.000, 0.000, 0.000, 14:47:00.173, L
138, 15.59, 10.39, 4.06, 12.82, 0.000, 0.000, 0.000, 14:47:00.173, L
139, 7.71, 4.53, 0.21, 6.99, 0.000, 0.000, 0.000, 14:47:00.186, L
140, 7.29, 13.31, 8.15, 16.31, 0.000, 0.000, 0.000, 14:47:00.186, L
141, 15.44, 19.01, 17.25, 20.09, 0.000, 0.000, 0.000, 14:47:00.201, L
142, 13.59, 12.20, 1.70, 14.52, 0.000, 0.000, 0.000, 14:47:00.202, L
143, 10.43, 3.85, 1.52, 9.19, 0.000, 0.000, 0.000, 14:47:00.207, L
144, 11.07, 7.88, 5.23, 7.52, 0.000, 0.000, 0.000, 14:47:00.207, L
145, 15.88, 14.76, 13.11, 17.98, 0.000, 0.000, 0.000, 14:47:00.216, L
146, 9.58, 14.26, 10.57, 11.25, 0.000, 0.000, 0.000, 14:47:00.216, L
147, 6.31, 4.78, 5.05, 6.43, 0.000, 0.000, 0.000, 14:47:00.231, L
148, 8.80, 6.70, 14.35, 9.39, 0.000, 0.000, 0.000, 14:47:00.231, L
149, 15.59, 20.72, 25.91, 20.71, 0.000, 0.000, 0.000, 14:47:00.232, L
150, 13.85, 11.65, 14.61, 19.03, 0.000, 0.000, 0.000, 14:47:00.232, L
151, 6.60, 9.36, 7.69, 9.48, 0.000, 0.000, 0.000, 14:47:00.246, L
152, 10.33, 8.80, 2.22, 11.92, 0.000, 0.000, 0.000, 14:47:00.246, L
