%OpenBCI Raw EEG Data
%
%Sample Rate = 200.0 Hz
%First Column = SampleIndex
%Last Column = Timestamp 
%Other Columns = EEG data in microvolts followed by Accel Data (in G) interleaved with Aux Data
0, 10.47, 13.92, 15.00, 20.40, 0.000, 0.000, 0.000, 10:21:51.778, 7
1, 21.01, 15.81, 21.03, 24.43, 0.000, 0.000, 0.000, 10:21:51.794, 7
2, 15.70, 16.62, 19.09, 16.26, 0.000, 0.000, 0.000, 10:21:51.797, 7
3, 7.58, 11.96, 15.06, 10.61, 0.000, 0.000, 0.000, 10:21:51.799, 7
4, 7.47, 12.34, 11.19, 19.12, 0.000, 0.000, 0.000, 10:21:51.802, 7
5, 7.91, 12.57, 16.26, 17.39, 0.000, 0.000, 0.000, 10:21:51.806, 7
6, 12.63, 13.34, 14.24, 13.71, 0.000, 0.000, 0.000, 10:21:51.809, 7
7, 18.65, 8.57, 12.42, 10.05, 0.000, 0.000, 0.000, 10:21:51.816, 7
8, 15.46, 15.17, 21.64, 14.96, 0.000, 0.000, 0.000, 10:21:51.818, 7
9, 19.68, 19.34, 16.74, 19.46, 0.000, 0.000, 0.000, 10:21:51.844, 7
10, 19.67, 15.19, 20.40, 15.62, 0.000, 0.000, 0.000, 10:21:51.845, 7
11, 10.14, 8.71, 13.45, 10.90, 0.000, 0.000, 0.000, 10:21:51.848, 7
12, 18.13, 11.63, 13.16, 14.19, 0.000, 0.000, 0.000, 10:21:51.849, 7
13, 15.19, 15.84, 18.05, 16.30, 0.000, 0.000, 0.000, 10:21:51.853, 7
14, 12.97, 13.21, 19.01, 13.32, 0.000, 0.000, 0.000, 10:21:51.854, 7
15, 7.62, 6.47, 15.26, 12.62, 0.000, 0.000, 0.000, 10:21:51.856, 7
16, 12.61, 7.36, 17.73, 11.51, 0.000, 0.000, 0.000, 10:21:51.857, 7
17, 10.39, 13.02, 19.65, 18.80, 0.000, 0.000, 0.000, 10:21:51.858, 7
18, 12.23, 15.85, 18.57, 14.51, 0.000, 0.000, 0.000, 10:21:51.859, 7
19, 7.37, 9.61, 6.86, 10.46, 0.000, 0.000, 0.000, 10:21:51.868, 7
20, 7.74, 9.38, 18.38, 13.41, 0.000, 0.000, 0.000, 10:21:51.869, 7
21, 24.29, 12.85, 21.30, 23.31, 0.000, 0.000, 0.000, 10:21:51.890, 7
22, 25.84, 13.70, 16.14, 20.01, 0.000, 0.000, 0.000, 10:21:51.890, 7
23, 20.47, 12.78, 12.54, 13.55, 0.000, 0.000, 0.000, 10:21:51.891, 7
24, 15.46, 10.72, 16.28, 16.38, 0.000, 0.000, 0.000, 10:21:51.892, 7
25, 12.99, 20.01, 20.93, 19.71, 0.000, 0.000, 0.000, 10:21:51.892, 7
26, 13.77, 11.25, 15.77, 13.92, 0.000, 0.000, 0.000, 10:21:51.892, 7
27, 7.61, 6.56, 14.79, 12.29, 0.000, 0.000, 0.000, 10:21:51.905, 7
28, 6.29, 13.68, 13.17, 17.77, 0.000, 0.000, 0.000, 10:21:51.906, 7
29, 18.63, 18.28, 25.28, 22.66, 0.000, 0.000, 0.000, 10:21:51.906, 7
30, 10.49, 11.19, 17.56, 17.56, 0.000, 0.000, 0.000, 10:21:51.907, 7
31, 7.72, 5.54, 13.65, 15.55, 0.000, 0.000, 0.000, 10:21:51.933, 7
32, 17.57, 11.84, 12.58, 13.41, 0.000, 0.000, 0.000, 10:21:51.934, 7
33, 24.73, 16.33, 18.64, 19.81, 0.000, 0.000, 0.000, 10:21:51.964, 7
34, 11.21, 9.64, 16.41, 15.12, 0.000, 0.000, 0.000, 10:21:51.964, 7
35, 14.54, 7.87, 14.89, 18.32, 0.000, 0.000, 0.000, 10:21:51.978, 7
36, 13.22, 14.53, 17.15, 20.29, 0.000, 0.000, 0.000, 10:21:51.979, 7
37, 21.45, 15.28, 18.90, 24.53, 0.000, 0.000, 0.000, 10:21:51.979, 7
38, 20.63, 13.63, 13.38, 24.97, 0.000, 0.000, 0.000, 10:21:51.979, 7
39, 8.01, 9.33, 9.72, 16.56, 0.000, 0.000, 0.000, 10:21:51.994, 7
40, 19.09, 9.20, 11.78, 21.17, 0.000, 0.000, 0.000, 10:21:51.994, 7
41, 14.66, 17.29, 20.42, 23.48, 0.000, 0.000, 0.000, 10:21:52.009, 7
42, 11.63, 12.38, 16.50, 14.99, 0.000, 0.000, 0.000, 10:21:52.009, 7
43, 7.49, 8.83, 14.08, 12.23, 0.000, 0.000, 0.000, 10:21:52.010, 7
44, 17.96, 12.76, 17.22, 14.34, 0.000, 0.000, 0.000, 10:21:52.011, 7
45, 14.98, 13.16, 21.25, 18.11, 0.000, 0.000, 0.000, 10:21:52.012, 7
46, 11.96, 14.71, 17.16, 17.03, 0.000, 0.000, 0.000, 10:21:52.012, 7
47, 13.36, 9.69, 11.73, 12.62, 0.000, 0.000, 0.000, 10:21:52.012, 7
48, 12.45, 11.08, 14.23, 14.62, 0.000, 0.000, 0.000, 10:21:52.013, 7
49, 15.05, 13.39, 19.52, 19.27, 0.000, 0.000, 0.000, 10:21:52.013, 7
50, 12.80, 12.40, 15.06, 14.18, 0.000, 0.000, 0.000, 10:21:52.014, 7
51, 10.71, 11.18, 11.07, 16.26, 0.000, 0.000, 0.000, 10:21:52.015, 7
52, 13.26, 11.91, 15.38, 16.61, 0.000, 0.000, 0.000, 10:21:52.015, 7
53, 22.56, 19.20, 19.96, 18.24, 0.000, 0.000, 0.000, 10:21:52.026, 7
54, 6.10, 12.35, 21.04, 18.69, 0.000, 0.000, 0.000, 10:21:52.027, 7
55, 7.55, 10.33, 11.26, 12.42, 0.000, 0.000, 0.000, 10:21:52.039, 7
56, 13.71, 8.62, 17.40, 12.28, 0.000, 0.000, 0.000, 10:21:52.039, 7
57, 11.44, 17.11, 16.53, 15.66, 0.000, 0.000, 0.000, 10:21:52.053, 7
58, 8.99, 10.47, 17.21, 17.06, 0.000, 0.000, 0.000, 10:21:52.054, 7
59, 11.78, 12.55, 14.19, 12.22, 0.000, 0.000, 0.000, 10:21:52.056, 7
60, 9.79, 13.47, 12.60, 14.49, 0.000, 0.000, 0.000, 10:21:52.056, 7
61, 21.71, 10.42, 17.88, 16.43, 0.000, 0.000, 0.000, 10:21:52.068, 7
62, 15.28, 11.14, 16.21, 13.80, 0.000, 0.000, 0.000, 10:21:52.069, 7
63, 6.72, 7.72, 16.18, 10.72, 0.000, 0.000, 0.000, 10:21:52.083, 7
64, 17.87, 10.14, 15.79, 17.45, 0.000, 0.000, 0.000, 10:21:52.084, 7
65, 18.65, 13.32, 22.68, 14.35, 0.000, 0.000, 0.000, 10:21:52.084, 7
66, 11.08, 12.43, 18.54, 13.48, 0.000, 0.000, 0.000, 10:21:52.085, 7
67, 6.57, 12.27, 14.72, 10.99, 0.000, 0.000, 0.000, 10:21:52.098, 7
68, 20.26, 8.44, 13.96, 16.47, 0.000, 0.000, 0.000, 10:21:52.098, 7
69, 15.70, 11.58, 22.37, 22.01, 0.000, 0.000, 0.000, 10:21:52.112, 7
70, 15.15, 13.54, 16.95, 15.17, 0.000, 0.000, 0.000, 10:21:52.113, 7
71, 7.95, 10.01, 10.11, 14.77, 0.000, 0.000, 0.000, 10:21:52.113, 7
72, 9.03, 15.81, 12.11, 10.81, 0.000, 0.000, 0.000, 10:21:52.114, 7
73, 17.07, 17.40, 27.21, 18.68, 0.000, 0.000, 0.000, 10:21:52.128, 7
74, 19.37, 12.30, 15.47, 17.49, 0.000, 0.000, 0.000, 10:21:52.128, 7
75, 13.42, 8.08, 13.78, 10.94, 0.000, 0.000, 0.000, 10:21:52.142, 7
76, 11.76, 9.32, 15.80, 18.62, 0.000, 0.000, 0.000, 10:21:52.142, 7
77, 14.65, 18.62, 24.96, 20.28, 0.000, 0.000, 0.000, 10:21:52.150, 7
78, 12.22, 12.37, 18.89, 14.40, 0.000, 0.000, 0.000, 10:21:52.150, 7
79, 8.56, 5.85, 13.51, 10.29, 0.000, 0.000, 0.000, 10:21:52.158, 7
80, 10.87, 11.02, 16.48, 14.48, 0.000, 0.000, 0.000, 10:21:52.158, 7
81, 13.02, 13.79, 18.71, 23.64, 0.000, 0.000, 0.000, 10:21:52.173, 7
82, 11.39, 13.88, 12.05, 13.38, 0.000, 0.000, 0.000, 10:21:52.174, 7
83, 19.76, 9.43, 14.65, 12.14, 0.000, 0.000, 0.000, 10:21:52.190, 7
84, 15.19, 11.30, 11.58, 17.37, 0.000, 0.000, 0.000, 10:21:52.190, 7
85, 14.94, 18.37, 19.92, 17.49, 0.000, 0.000, 0.000, 10:21:52.191, 7
86, 11.92, 13.36, 18.31, 17.63, 0.000, 0.000, 0.000, 10:21:52.191, 7
87, 3.79, 8.90, 13.20, 10.92, 0.000, 0.000, 0.000, 10:21:52.204, 7
88, 12.29, 10.89, 13.61, 12.58, 0.000, 0.000, 0.000, 10:21:52.205, 7
89, 19.92, 20.66, 22.11, 12.66, 0.000, 0.000, 0.000, 10:21:52.205, 7
90, 18.42, 13.86, 17.39, 11.49, 0.000, 0.000, 0.000, 10:21:52.206, 7
91, 4.70, 11.89, 11.10, 12.09, 0.000, 0.000, 0.000, 10:21:52.219, 7
92, 12.33, 14.00, 15.18, 15.35, 0.000, 0.000, 0.000, 10:21:52.219, 7
93, 23.10, 18.27, 19.28, 21.94, 0.000, 0.000, 0.000, 10:21:52.233, 7
94, 19.18, 11.56, 21.85, 21.75, 0.000, 0.000, 0.000, 10:21:52.234, 7
95, 12.23, 9.21, 12.23, 8.35, 0.000, 0.000, 0.000, 10:21:52.234, 7
96, 16.29, 14.49, 14.73, 16.71, 0.000, 0.000, 0.000, 10:21:52.234, 7
97, 15.73, 15.89, 22.34, 19.98, 0.000, 0.000, 0.000, 10:21:52.248, 7
98, 8.81, 15.23, 16.58, 15.68, 0.000, 0.000, 0.000, 10:21:52.249, 7
99, 10.65, 5.50, 12.42, 14.69, 0.000, 0.000, 0.000, 10:21:52.263, 7
100, 16.90, 13.40, 14.01, 17.53, 0.000, 0.000, 0.000, 10:21:52.264, 7
101, 12.89, 13.71, 17.79, 19.24, 0.000, 0.000, 0.000, 10:21:52.264, 7
102, 10.15, 7.81, 16.46, 15.21, 0.000, 0.000, 0.000, 10:21:52.264, 7
103, 17.90, 8.64, 14.66, 17.21, 0.000, 0.000, 0.000, 10:21:52.278, 7
104, 12.15, 11.85, 18.02, 17.31, 0.000, 0.000, 0.000, 10:21:52.278, 7
105, 12.24, 13.90, 21.65, 23.82, 0.000, 0.000, 0.000, 10:21:52.293, 7
106, 24.76, 17.53, 17.13, 16.01, 0.000, 0.000, 0.000, 10:21:52.293, 7
107, 9.59, 14.44, 14.45, 13.36, 0.000, 0.000, 0.000, 10:21:52.294, 7
108, 15.30, 11.27, 14.77, 17.57, 0.000, 0.000, 0.000, 10:21:52.294, 7
109, 24.06, 16.21, 18.77, 18.17, 0.000, 0.000, 0.000, 10:21:52.308, 7
110, 9.87, 13.82, 13.26, 16.87, 0.000, 0.000, 0.000, 10:21:52.309, 7
111, 5.72, 11.20, 13.10, 11.97, 0.000, 0.000, 0.000, 10:21:52.324, 7
112, 7.38, 15.95, 16.83, 19.50, 0.000, 0.000, 0.000, 10:21:52.324, 7
113, 18.58, 16.88, 19.20, 21.60, 0.000, 0.000, 0.000, 10:21:52.324, 7
114, 15.34, 10.02, 21.11, 12.13, 0.000, 0.000, 0.000, 10:21:52.324, 7
115, 13.35, 8.43, 15.99, 8.04, 0.000, 0.000, 0.000, 10:21:52.339, 7
116, 14.50, 14.14, 22.53, 16.29, 0.000, 0.000, 0.000, 10:21:52.339, 7
117, 14.59, 12.09, 16.41, 16.75, 0.000, 0.000, 0.000, 10:21:52.353, 7
118, 12.87, 13.39, 17.13, 21.42, 0.000, 0.000, 0.000, 10:21:52.356, 7
119, 9.78, 9.10, 11.91, 8.67, 0.000, 0.000, 0.000, 10:21:52.356, 7
120, 10.06, 8.85, 12.50, 7.74, 0.000, 0.000, 0.000, 10:21:52.356, 7
121, 16.12, 14.34, 16.87, 17.11, 0.000, 0.000, 0.000, 10:21:52.384, 7
122, 16.21, 15.86, 18.09, 22.22, 0.000, 0.000, 0.000, 10:21:52.385, 7
123, 8.90, 8.43, 15.82, 9.30, 0.000, 0.000, 0.000, 10:21:52.387, 7
124, 14.54, 11.32, 16.29, 13.48, 0.000, 0.000, 0.000, 10:21:52.387, 7
125, 16.53, 16.02, 17.43, 18.83, 0.000, 0.000, 0.000, 10:21:52.399, 7
126, 15.36, 10.51, 22.55, 13.36, 0.000, 0.000, 0.000, 10:21:52.402, 7
127, 11.11, 8.27, 11.49, 11.80, 0.000, 0.000, 0.000, 10:21:52.409, 7
128, 22.55, 10.88, 18.33, 13.23, 0.000, 0.000, 0.000, 10:21:52.410, 7
129, 23.80, 15.17, 22.67, 15.34, 0.000, 0.000, 0.000, 10:21:52.413, 7
130, 14.32, 16.97, 21.88, 18.05, 0.000, 0.000, 0.000, 10:21:52.414, 7
131, 10.85, 7.14, 12.82, 10.79, 0.000, 0.000, 0.000, 10:21:52.414, 7
132, 8.69, 6.96, 15.82, 14.80, 0.000, 0.000, 0.000, 10:21:52.414, 7
133, 14.97, 16.64, 19.40, 21.19, 0.000, 0.000, 0.000, 10:21:52.428, 7
134, 20.06, 14.91, 17.79, 20.65, 0.000, 0.000, 0.000, 10:21:52.428, 7
135, 12.23, 8.96, 13.60, 10.63, 0.000, 0.000, 0.000, 10:21:52.443, 7
136, 11.98, 11.96, 12.56, 8.22, 0.000, 0.000, 0.000, 10:21:52.443, 7
137, 13.69, 13.06, 15.61, 13.98, 0.000, 0.000, 0.000, 10:21:52.444, 7
138, 16.15, 14.42, 21.88, 16.11, 0.000, 0.000, 0.000, 10:21:52.444, 7
139, 7.42, 7.20, 11.71, 12.78, 0.000, 0.000, 0.000, 10:21:52.457, 7
140, 15.01, 10.54, 11.78, 14.81, 0.000, 0.000, 0.000, 10:21:52.458, 7
141, 14.88, 17.39, 21.63, 15.31, 0.000, 0.000, 0.000, 10:21:52.473, 7
142, 15.96, 10.21, 14.51, 11.78, 0.000, 0.000, 0.000, 10:21:52.474, 7
143, 5.82, 7.72, 11.40, 11.00, 0.000, 0.000, 0.000, 10:21:52.474, 7
144, 15.52, 10.14, 16.83, 17.49, 0.000, 0.000, 0.000, 10:21:52.474, 7
145, 12.77, 17.59, 23.04, 19.91, 0.000, 0.000, 0.000, 10:21:52.488, 7
146, 19.96, 16.23, 12.41, 12.34, 0.000, 0.000, 0.000, 10:21:52.489, 7
147, 12.24, 11.84, 7.55, 9.54, 0.000, 0.000, 0.000, 10:21:52.503, 7
148, 6.44, 15.04, 12.59, 11.13, 0.000, 0.000, 0.000, 10:21:52.503, 7
149, 13.70, 17.01, 20.44, 19.84, 0.000, 0.000, 0.000, 10:21:52.503, 7
150, 15.80, 13.34, 21.93, 14.86, 0.000, 0.000, 0.000, 10:21:52.504, 7
151, 11.68, 6.77, 14.41, 9.41, 0.000, 0.000, 0.000, 10:21:52.519, 7
152, 15.68, 11.89, 15.92, 13.05, 0.000, 0.000, 0.000, 10:21:52.519, 7
153, 13.62, 13.17, 23.86, 16.36, 0.000, 0.000, 0.000, 10:21:52.534, 7
154, 14.36, 13.69, 16.97, 15.33, 0.000, 0.000, 0.000, 10:21:52.534, 7
155, 12.69, 9.54, 10.60, 9.46, 0.000, 0.000, 0.000, 10:21:52.534, 7
156, 9.04, 14.65, 18.24, 12.88, 0.000, 0.000, 0.000, 10:21:52.535, 7
157, 15.20, 14.52, 16.67, 22.47, 0.000, 0.000, 0.000, 10:21:52.549, 7
158, 9.00, 12.60, 12.02, 17.67, 0.000, 0.000, 0.000, 10:21:52.550, 7
159, 13.04, 6.89, 13.22, 14.17, 0.000, 0.000, 0.000, 10:21:52.565, 7
160, 18.21, 11.91, 14.35, 9.88, 0.000, 0.000, 0.000, 10:21:52.565, 7
161, 15.65, 18.51, 21.26, 25.98, 0.000, 0.000, 0.000, 10:21:52.579, 7
162, 17.49, 9.98, 18.57, 21.14, 0.000, 0.000, 0.000, 10:21:52.580, 7
163, 14.03, 8.25, 13.51, 15.64, 0.000, 0.000, 0.000, 10:21:52.581, 7
164, 12.04, 11.44, 15.06, 17.48, 0.000, 0.000, 0.000, 10:21:52.581, 7
165, 17.91, 19.33, 16.08, 22.90, 0.000, 0.000, 0.000, 10:21:52.594, 7
166, 18.56, 11.31, 17.33, 20.76, 0.000, 0.000, 0.000, 10:21:52.595, 7
167, 7.93, 10.57, 12.76, 12.25, 0.000, 0.000, 0.000, 10:21:52.609, 7
168, 19.08, 14.39, 17.39, 15.93, 0.000, 0.000, 0.000, 10:21:52.610, 7
169, 15.59, 13.78, 21.89, 12.85, 0.000, 0.000, 0.000, 10:21:52.610, 7
170, 13.98, 12.41, 19.11, 15.68, 0.000, 0.000, 0.000, 10:21:52.611, 7
171, 19.54, 10.57, 17.93, 13.78, 0.000, 0.000, 0.000, 10:21:52.624, 7
172, 11.55, 14.61, 16.11, 16.09, 0.000, 0.000, 0.000, 10:21:52.625, 7
173, 17.30, 18.32, 19.57, 20.63, 0.000, 0.000, 0.000, 10:21:52.626, 7
174, 17.76, 10.58, 11.43, 13.87, 0.000, 0.000, 0.000, 10:21:52.627, 7
175, 8.49, 7.20, 9.11, 12.77, 0.000, 0.000, 0.000, 10:21:52.643, 7
176, 12.52, 12.01, 17.66, 17.08, 0.000, 0.000, 0.000, 10:21:52.644, 7
177, 12.76, 14.56, 20.08, 16.64, 0.000, 0.000, 0.000, 10:21:52.657, 7
178, 11.90, 17.42, 18.31, 15.95, 0.000, 0.000, 0.000, 10:21:52.658, 7
179, 17.49, 7.36, 10.88, 14.42, 0.000, 0.000, 0.000, 10:21:52.659, 7
180, 14.12, 10.42, 13.65, 13.58, 0.000, 0.000, 0.000, 10:21:52.660, 7
181, 21.98, 15.44, 20.67, 21.78, 0.000, 0.000, 0.000, 10:21:52.670, 7
182, 21.27, 11.18, 18.09, 15.41, 0.000, 0.000, 0.000, 10:21:52.671, 7
183, 8.77, 10.11, 15.74, 15.13, 0.000, 0.000, 0.000, 10:21:52.683, 7
184, 7.53, 10.88, 15.63, 16.62, 0.000, 0.000, 0.000, 10:21:52.684, 7
185, 18.25, 18.27, 19.64, 21.91, 0.000, 0.000, 0.000, 10:21:52.686, 7
186, 16.85, 11.15, 20.17, 16.72, 0.000, 0.000, 0.000, 10:21:52.687, 7
187, 6.74, 8.21, 16.56, 10.59, 0.000, 0.000, 0.000, 10:21:52.698, 7
188, 8.27, 11.54, 19.55, 17.09, 0.000, 0.000, 0.000, 10:21:52.698, 7
189, 26.59, 14.61, 18.42, 18.27, 0.000, 0.000, 0.000, 10:21:52.713, 7
190, 15.64, 11.82, 19.40, 19.00, 0.000, 0.000, 0.000, 10:21:52.713, 7
191, 8.04, 10.86, 12.52, 9.46, 0.000, 0.000, 0.000, 10:21:52.713, 7
192, 9.26, 12.93, 17.74, 14.41, 0.000, 0.000, 0.000, 10:21:52.713, 7
193, 17.65, 17.11, 21.20, 20.56, 0.000, 0.000, 0.000, 10:21:52.728, 7
194, 11.11, 12.13, 15.58, 16.81, 0.000, 0.000, 0.000, 10:21:52.728, 7
195, 8.17, 6.16, 11.58, 8.63, 0.000, 0.000, 0.000, 10:21:52.743, 7
196, 12.72, 9.49, 12.81, 11.49, 0.000, 0.000, 0.000, 10:21:52.743, 7
197, 11.10, 17.67, 20.35, 13.95, 0.000, 0.000, 0.000, 10:21:52.743, 7
198, 12.18, 11.90, 17.05, 16.30, 0.000, 0.000, 0.000, 10:21:52.744, 7
199, 17.30, 9.67, 11.88, 13.13, 0.000, 0.000, 0.000, 10:21:52.757, 7
200, 14.14, 9.68, 18.30, 10.39, 0.000, 0.000, 0.000, 10:21:52.758, 7
0, 14.21, 17.83, 17.72, 17.81, 0.000, 0.000, 0.000, 10:21:52.758, 7
1, 12.68, 9.37, 20.57, 15.78, 0.000, 0.000, 0.000, 10:21:52.788, 7
2, 7.19, 9.90, 13.50, 9.09, 0.000, 0.000, 0.000, 10:21:52.789, 7
3, 13.99, 8.24, 17.56, 14.01, 0.000, 0.000, 0.000, 10:21:52.789, 7
4, 14.66, 11.62, 20.02, 22.75, 0.000, 0.000, 0.000, 10:21:52.789, 7
5, 13.03, 18.23, 13.12, 17.59, 0.000, 0.000, 0.000, 10:21:52.789, 7
6, 8.12, 11.36, 13.48, 9.93, 0.000, 0.000, 0.000, 10:21:52.789, 7
7, 5.45, 9.96, 15.04, 12.48, 0.000, 0.000, 0.000, 10:21:52.802, 7
8, 14.19, 16.68, 22.46, 14.55, 0.000, 0.000, 0.000, 10:21:52.803, 7
9, 13.05, 8.28, 14.15, 18.10, 0.000, 0.000, 0.000, 10:21:52.817, 7
10, 16.70, 9.04, 13.30, 12.85, 0.000, 0.000, 0.000, 10:21:52.818, 7
11, 11.31, 8.24, 13.16, 15.31, 0.000, 0.000, 0.000, 10:21:52.819, 7
12, 14.76, 15.91, 20.49, 15.66, 0.000, 0.000, 0.000, 10:21:52.819, 7
13, 15.39, 16.46, 18.50, 15.88, 0.000, 0.000, 0.000, 10:21:52.832, 7
14, 14.24, 11.07, 14.27, 11.35, 0.000, 0.000, 0.000, 10:21:52.832, 7
15, 9.99, 14.44, 16.21, 13.05, 0.000, 0.000, 0.000, 10:21:52.848, 7
16, 14.10, 17.49, 19.61, 19.57, 0.000, 0.000, 0.000, 10:21:52.848, 7
17, 20.09, 16.37, 15.64, 21.98, 0.000, 0.000, 0.000, 10:21:52.848, 7
18, 12.86, 13.85, 15.70, 14.92, 0.000, 0.000, 0.000, 10:21:52.848, 7
19, 16.22, 13.47, 16.52, 14.81, 0.000, 0.000, 0.000, 10:21:52.871, 7
20, 16.68, 15.79, 21.28, 18.74, 0.000, 0.000, 0.000, 10:21:52.871, 7
21, 20.50, 13.36, 18.87, 20.70, 0.000, 0.000, 0.000, 10:21:52.882, 7
22, 12.68, 3.35, 13.49, 13.73, 0.000, 0.000, 0.000, 10:21:52.883, 7
23, 9.44, 12.82, 8.99, 16.57, 0.000, 0.000, 0.000, 10:21:52.883, 7
24, 9.50, 13.21, 21.47, 17.51, 0.000, 0.000, 0.000, 10:21:52.884, 7
25, 9.98, 14.06, 16.61, 14.75, 0.000, 0.000, 0.000, 10:21:52.894, 7
26, 6.19, 4.30, 12.52, 13.90, 0.000, 0.000, 0.000, 10:21:52.894, 7
27, 6.33, 8.90, 17.08, 14.24, 0.000, 0.000, 0.000, 10:21:52.909, 7
28, 16.22, 16.61, 20.16, 19.56, 0.000, 0.000, 0.000, 10:21:52.909, 7
29, 22.74, 15.91, 15.42, 13.97, 0.000, 0.000, 0.000, 10:21:52.909, 7
30, 12.84, 10.37, 13.12, 10.25, 0.000, 0.000, 0.000, 10:21:52.910, 7
31, 12.23, 14.88, 18.25, 14.22, 0.000, 0.000, 0.000, 10:21:52.924, 7
32, 23.76, 12.25, 15.97, 19.63, 0.000, 0.000, 0.000, 10:21:52.925, 7
33, 15.64, 14.96, 16.81, 15.67, 0.000, 0.000, 0.000, 10:21:52.940, 7
34, 9.12, 5.99, 10.33, 14.67, 0.000, 0.000, 0.000, 10:21:52.942, 7
35, 6.22, 15.84, 18.84, 19.54, 0.000, 0.000, 0.000, 10:21:52.943, 7
36, 13.53, 14.27, 21.82, 17.11, 0.000, 0.000, 0.000, 10:21:52.943, 7
37, 20.86, 16.32, 16.77, 19.04, 0.000, 0.000, 0.000, 10:21:52.954, 7
38, 16.56, 9.85, 14.72, 6.77, 0.000, 0.000, 0.000, 10:21:52.955, 7
39, 9.81, 13.26, 17.78, 14.48, 0.000, 0.000, 0.000, 10:21:52.971, 7
40, 20.36, 15.51, 17.69, 14.82, 0.000, 0.000, 0.000, 10:21:52.972, 7
41, 16.95, 14.64, 18.58, 18.30, 0.000, 0.000, 0.000, 10:21:52.972, 7
42, 13.29, 7.51, 16.59, 5.80, 0.000, 0.000, 0.000, 10:21:52.973, 7
43, 10.20, 9.97, 16.34, 11.66, 0.000, 0.000, 0.000, 10:21:52.988, 7
44, 14.20, 15.38, 17.35, 16.17, 0.000, 0.000, 0.000, 10:21:52.989, 7
45, 14.07, 11.14, 13.30, 14.02, 0.000, 0.000, 0.000, 10:21:52.998, 7
46, 13.65, 8.49, 9.65, 12.68, 0.000, 0.000, 0.000, 10:21:52.998, 7
47, 11.85, 10.54, 14.03, 13.14, 0.000, 0.000, 0.000, 10:21:52.999, 7
48, 13.22, 14.80, 18.82, 17.96, 0.000, 0.000, 0.000, 10:21:52.999, 7
49, 17.03, 13.85, 17.36, 13.21, 0.000, 0.000, 0.000, 10:21:53.019, 7
50, 13.37, 7.52, 12.75, 9.91, 0.000, 0.000, 0.000, 10:21:53.020, 7
51, 11.68, 9.50, 12.02, 12.69, 0.000, 0.000, 0.000, 10:21:53.028, 7
52, 12.55, 15.88, 19.45, 18.73, 0.000, 0.000, 0.000, 10:21:53.028, 7
53, 12.00, 13.32, 18.46, 17.44, 0.000, 0.000, 0.000, 10:21:53.028, 7
54, 10.76, 11.28, 12.25, 8.20, 0.000, 0.000, 0.000, 10:21:53.029, 7
55, 8.01, 10.06, 12.94, 11.87, 0.000, 0.000, 0.000, 10:21:53.043, 7
56, 10.41, 17.31, 19.59, 19.52, 0.000, 0.000, 0.000, 10:21:53.043, 7
57, 23.17, 13.31, 16.62, 14.89, 0.000, 0.000, 0.000, 10:21:53.057, 7
58, 15.06, 8.26, 15.96, 11.78, 0.000, 0.000, 0.000, 10:21:53.058, 7
59, 13.61, 12.51, 18.15, 15.65, 0.000, 0.000, 0.000, 10:21:53.060, 7
60, 9.65, 13.32, 22.75, 14.95, 0.000, 0.000, 0.000, 10:21:53.060, 7
61, 12.69, 16.78, 15.48, 16.05, 0.000, 0.000, 0.000, 10:21:53.074, 7
62, 8.70, 11.71, 12.22, 14.38, 0.000, 0.000, 0.000, 10:21:53.074, 7
63, 14.67, 12.43, 16.69, 14.19, 0.000, 0.000, 0.000, 10:21:53.089, 7
64, 17.35, 15.42, 19.78, 20.63, 0.000, 0.000, 0.000, 10:21:53.089, 7
65, 9.44, 11.93, 12.03, 18.79, 0.000, 0.000, 0.000, 10:21:53.089, 7
66, 18.45, 9.94, 11.75, 12.75, 0.000, 0.000, 0.000, 10:21:53.090, 7
67, 8.53, 7.15, 17.59, 15.76, 0.000, 0.000, 0.000, 10:21:53.103, 7
68, 18.36, 14.89, 21.94, 19.22, 0.000, 0.000, 0.000, 10:21:53.103, 7
69, 15.97, 13.40, 14.05, 15.42, 0.000, 0.000, 0.000, 10:21:53.118, 7
70, 13.44, 10.35, 16.39, 12.51, 0.000, 0.000, 0.000, 10:21:53.119, 7
71, 13.64, 10.09, 14.35, 14.13, 0.000, 0.000, 0.000, 10:21:53.120, 7
72, 16.26, 13.70, 18.51, 17.73, 0.000, 0.000, 0.000, 10:21:53.120, 7
73, 21.53, 13.16, 17.75, 16.29, 0.000, 0.000, 0.000, 10:21:53.133, 7
74, 8.31, 8.24, 15.42, 15.79, 0.000, 0.000, 0.000, 10:21:53.133, 7
75, 9.21, 12.76, 13.52, 9.14, 0.000, 0.000, 0.000, 10:21:53.147, 7
76, 16.87, 15.91, 20.95, 15.47, 0.000, 0.000, 0.000, 10:21:53.147, 7
77, 10.66, 13.69, 17.79, 14.06, 0.000, 0.000, 0.000, 10:21:53.148, 7
78, 14.48, 9.21, 14.14, 11.89, 0.000, 0.000, 0.000, 10:21:53.148, 7
79, 12.63, 11.45, 15.36, 15.20, 0.000, 0.000, 0.000, 10:21:53.178, 7
80, 17.89, 12.37, 23.91, 14.91, 0.000, 0.000, 0.000, 10:21:53.178, 7
81, 20.88, 15.11, 19.25, 20.20, 0.000, 0.000, 0.000, 10:21:53.179, 7
82, 15.03, 8.10, 10.99, 9.12, 0.000, 0.000, 0.000, 10:21:53.179, 7
83, 12.03, 7.71, 16.90, 12.61, 0.000, 0.000, 0.000, 10:21:53.180, 7
84, 15.62, 14.26, 18.90, 17.76, 0.000, 0.000, 0.000, 10:21:53.180, 7
85, 18.98, 15.84, 16.79, 13.16, 0.000, 0.000, 0.000, 10:21:53.193, 7
86, 5.72, 9.27, 17.49, 14.03, 0.000, 0.000, 0.000, 10:21:53.193, 7
87, 13.22, 16.66, 17.19, 11.69, 0.000, 0.000, 0.000, 10:21:53.208, 7
88, 14.94, 16.86, 22.33, 17.40, 0.000, 0.000, 0.000, 10:21:53.208, 7
89, 13.40, 13.60, 17.77, 17.59, 0.000, 0.000, 0.000, 10:21:53.209, 7
90, 10.88, 7.47, 12.10, 12.64, 0.000, 0.000, 0.000, 10:21:53.209, 7
91, 14.57, 12.06, 13.98, 17.52, 0.000, 0.000, 0.000, 10:21:53.225, 7
92, 16.99, 13.33, 21.66, 23.17, 0.000, 0.000, 0.000, 10:21:53.225, 7
93, 11.76, 14.84, 15.79, 20.23, 0.000, 0.000, 0.000, 10:21:53.239, 7
94, 12.73, 10.14, 7.66, 17.04, 0.000, 0.000, 0.000, 10:21:53.240, 7
95, 14.62, 11.46, 16.54, 14.51, 0.000, 0.000, 0.000, 10:21:53.240, 7
96, 14.32, 14.65, 18.89, 20.67, 0.000, 0.000, 0.000, 10:21:53.241, 7
97, 14.39, 15.74, 17.59, 20.24, 0.000, 0.000, 0.000, 10:21:53.254, 7
98, 9.64, 8.24, 9.32, 10.75, 0.000, 0.000, 0.000, 10:21:53.254, 7
99, 13.78, 10.39, 16.13, 14.60, 0.000, 0.000, 0.000, 10:21:53.268, 7
100, 17.13, 19.50, 20.01, 19.76, 0.000, 0.000, 0.000, 10:21:53.269, 7
101, 15.98, 13.23, 19.74, 21.00, 0.000, 0.000, 0.000, 10:21:53.299, 7
102, 8.91, 7.70, 13.95, 13.59, 0.000, 0.000, 0.000, 10:21:53.299, 7
103, 4.29, 9.47, 19.45, 11.73, 0.000, 0.000, 0.000, 10:21:53.299, 7
104, 20.81, 19.65, 16.63, 18.10, 0.000, 0.000, 0.000, 10:21:53.300, 7
105, 9.13, 14.30, 18.81, 19.11, 0.000, 0.000, 0.000, 10:21:53.300, 7
106, 8.38, 10.73, 15.18, 14.84, 0.000, 0.000, 0.000, 10:21:53.300, 7
107, 16.12, 14.91, 16.46, 15.37, 0.000, 0.000, 0.000, 10:21:53.307, 7
108, 16.46, 15.94, 19.94, 17.65, 0.000, 0.000, 0.000, 10:21:53.308, 7
109, 13.37, 13.12, 14.97, 13.94, 0.000, 0.000, 0.000, 10:21:53.313, 7
110, 15.04, 8.14, 9.63, 9.55, 0.000, 0.000, 0.000, 10:21:53.313, 7
111, 10.36, 8.26, 14.72, 15.18, 0.000, 0.000, 0.000, 10:21:53.328, 7
112, 17.39, 20.39, 16.42, 19.56, 0.000, 0.000, 0.000, 10:21:53.328, 7
113, 19.09, 13.93, 17.24, 22.07, 0.000, 0.000, 0.000, 10:21:53.332, 7
114, 13.82, 13.03, 14.37, 12.34, 0.000, 0.000, 0.000, 10:21:53.332, 7
115, 11.28, 10.90, 17.48, 13.77, 0.000, 0.000, 0.000, 10:21:53.344, 7
116, 21.76, 14.42, 24.21, 16.40, 0.000, 0.000, 0.000, 10:21:53.344, 7
117, 10.64, 14.86, 18.41, 16.69, 0.000, 0.000, 0.000, 10:21:53.358, 7
118, 9.52, 6.77, 7.88, 9.91, 0.000, 0.000, 0.000, 10:21:53.359, 7
119, 12.54, 11.81, 15.02, 19.19, 0.000, 0.000, 0.000, 10:21:53.359, 7
120, 17.41, 11.88, 24.66, 19.37, 0.000, 0.000, 0.000, 10:21:53.359, 7
121, 14.66, 14.25, 19.16, 19.38, 0.000, 0.000, 0.000, 10:21:53.374, 7
122, 19.16, 8.54, 11.59, 11.94, 0.000, 0.000, 0.000, 10:21:53.374, 7
123, 9.78, 11.76, 12.27, 15.94, 0.000, 0.000, 0.000, 10:21:53.389, 7
124, 20.14, 14.30, 19.11, 21.96, 0.000, 0.000, 0.000, 10:21:53.390, 7
125, 15.39, 11.31, 13.43, 17.03, 0.000, 0.000, 0.000, 10:21:53.390, 7
126, 11.60, 10.05, 8.33, 8.72, 0.000, 0.000, 0.000, 10:21:53.390, 7
127, 16.00, 7.82, 20.00, 15.73, 0.000, 0.000, 0.000, 10:21:53.404, 7
128, 15.60, 15.71, 22.87, 22.62, 0.000, 0.000, 0.000, 10:21:53.404, 7
129, 5.80, 11.42, 14.18, 14.22, 0.000, 0.000, 0.000, 10:21:53.418, 7
130, 4.47, 10.03, 12.84, 11.73, 0.000, 0.000, 0.000, 10:21:53.419, 7
131, 18.52, 12.99, 12.76, 17.89, 0.000, 0.000, 0.000, 10:21:53.420, 7
132, 15.82, 12.42, 17.71, 18.47, 0.000, 0.000, 0.000, 10:21:53.420, 7
133, 15.95, 12.52, 17.70, 14.36, 0.000, 0.000, 0.000, 10:21:53.433, 7
134, 14.70, 12.31, 17.37, 13.83, 0.000, 0.000, 0.000, 10:21:53.434, 7
135, 7.28, 8.11, 11.44, 13.64, 0.000, 0.000, 0.000, 10:21:53.448, 7
136, 18.55, 16.12, 20.36, 20.52, 0.000, 0.000, 0.000, 10:21:53.448, 7
137, 11.92, 15.02, 18.89, 16.07, 0.000, 0.000, 0.000, 10:21:53.449, 7
138, 15.77, 9.31, 16.55, 12.06, 0.000, 0.000, 0.000, 10:21:53.449, 7
139, 11.79, 12.15, 15.89, 15.49, 0.000, 0.000, 0.000, 10:21:53.463, 7
140, 13.30, 16.40, 17.52, 14.03, 0.000, 0.000, 0.000, 10:21:53.463, 7
141, 8.76, 13.25, 17.03, 10.41, 0.000, 0.000, 0.000, 10:21:53.478, 7
142, 16.59, 7.43, 11.89, 6.46, 0.000, 0.000, 0.000, 10:21:53.478, 7
143, 7.86, 11.89, 16.50, 16.71, 0.000, 0.000, 0.000, 10:21:53.479, 7
144, 17.30, 13.26, 19.12, 18.30, 0.000, 0.000, 0.000, 10:21:53.479, 7
145, 16.31, 13.45, 19.22, 16.31, 0.000, 0.000, 0.000, 10:21:53.493, 7
146, 16.09, 12.42, 13.29, 12.33, 0.000, 0.000, 0.000, 10:21:53.493, 7
147, 12.05, 7.41, 16.49, 12.06, 0.000, 0.000, 0.000, 10:21:53.507, 7
148, 12.46, 15.91, 17.26, 17.21, 0.000, 0.000, 0.000, 10:21:53.508, 7
149, 17.93, 15.44, 19.63, 18.22, 0.000, 0.000, 0.000, 10:21:53.508, 7
150, 11.35, 11.04, 10.23, 11.18, 0.000, 0.000, 0.000, 10:21:53.508, 7
151, 21.44, 15.54, 11.29, 12.41, 0.000, 0.000, 0.000, 10:21:53.523, 7
152, 17.83, 14.79, 20.87, 19.45, 0.000, 0.000, 0.000, 10:21:53.523, 7
153, 19.15, 11.64, 17.62, 13.86, 0.000, 0.000, 0.000, 10:21:53.538, 7
154, 10.05, 8.43, 9.92, 11.51, 0.000, 0.000, 0.000, 10:21:53.538, 7
155, 14.67, 10.58, 16.47, 18.49, 0.000, 0.000, 0.000, 10:21:53.539, 7
156, 14.06, 15.23, 20.92, 22.00, 0.000, 0.000, 0.000, 10:21:53.539, 7
157, 14.22, 14.23, 19.80, 22.10, 0.000, 0.000, 0.000, 10:21:53.555, 7
158, 7.38, 6.89, 17.20, 14.31, 0.000, 0.000, 0.000, 10:21:53.557, 7
159, 12.53, 9.20, 15.87, 11.72, 0.000, 0.000, 0.000, 10:21:53.568, 7
160, 18.13, 20.53, 17.52, 17.61, 0.000, 0.000, 0.000, 10:21:53.569, 7
161, 14.20, 9.02, 19.86, 14.16, 0.000, 0.000, 0.000, 10:21:53.570, 7
162, 6.74, 7.10, 12.26, 13.80, 0.000, 0.000, 0.000, 10:21:53.570, 7
163, 9.89, 10.59, 9.18, 11.87, 0.000, 0.000, 0.000, 10:21:53.583, 7
164, 20.73, 16.19, 18.42, 17.80, 0.000, 0.000, 0.000, 10:21:53.584, 7
165, 11.86, 12.51, 18.54, 17.67, 0.000, 0.000, 0.000, 10:21:53.598, 7
166, 14.76, 12.71, 12.77, 11.71, 0.000, 0.000, 0.000, 10:21:53.598, 7
167, 16.21, 12.08, 16.43, 12.84, 0.000, 0.000, 0.000, 10:21:53.599, 7
168, 13.95, 17.46, 19.58, 15.86, 0.000, 0.000, 0.000, 10:21:53.599, 7
169, 14.63, 15.57, 16.97, 19.76, 0.000, 0.000, 0.000, 10:21:53.613, 7
170, 8.49, 8.99, 12.53, 6.97, 0.000, 0.000, 0.000, 10:21:53.613, 7
171, 8.33, 9.98, 11.83, 16.42, 0.000, 0.000, 0.000, 10:21:53.628, 7
172, 18.36, 15.22, 20.68, 19.14, 0.000, 0.000, 0.000, 10:21:53.628, 7
173, 9.78, 14.83, 14.05, 14.82, 0.000, 0.000, 0.000, 10:21:53.643, 7
174, 11.51, 10.63, 12.40, 7.20, 0.000, 0.000, 0.000, 10:21:53.643, 7
175, 16.87, 13.33, 15.72, 12.41, 0.000, 0.000, 0.000, 10:21:53.643, 7
176, 9.72, 12.60, 21.37, 19.80, 0.000, 0.000, 0.000, 10:21:53.643, 7
177, 18.92, 14.44, 17.81, 15.17, 0.000, 0.000, 0.000, 10:21:53.658, 7
178, 12.35, 7.93, 9.14, 12.58, 0.000, 0.000, 0.000, 10:21:53.658, 7
179, 12.18, 12.78, 16.92, 17.55, 0.000, 0.000, 0.000, 10:21:53.658, 7
180, 17.84, 18.59, 20.10, 16.95, 0.000, 0.000, 0.000, 10:21:53.658, 7
181, 15.76, 14.51, 16.48, 16.68, 0.000, 0.000, 0.000, 10:21:53.688, 7
182, 8.93, 9.58, 12.93, 13.07, 0.000, 0.000, 0.000, 10:21:53.688, 7
183, 8.58, 12.32, 15.42, 12.96, 0.000, 0.000, 0.000, 10:21:53.688, 7
184, 20.28, 15.09, 22.53, 19.18, 0.000, 0.000, 0.000, 10:21:53.689, 7
185, 16.65, 12.34, 21.40, 21.70, 0.000, 0.000, 0.000, 10:21:53.689, 7
186, 10.69, 12.05, 13.39, 13.78, 0.000, 0.000, 0.000, 10:21:53.689, 7
187, 5.48, 12.09, 18.96, 14.46, 0.000, 0.000, 0.000, 10:21:53.720, 7
188, 15.92, 18.24, 22.41, 16.60, 0.000, 0.000, 0.000, 10:21:53.720, 7
189, 10.76, 15.22, 16.27, 15.11, 0.000, 0.000, 0.000, 10:21:53.721, 7
190, 15.62, 9.84, 12.10, 8.64, 0.000, 0.000, 0.000, 10:21:53.721, 7
191, 9.36, 7.63, 15.73, 14.13, 0.000, 0.000, 0.000, 10:21:53.723, 7
192, 18.72, 14.10, 18.45, 14.82, 0.000, 0.000, 0.000, 10:21:53.723, 7
193, 16.27, 12.69, 19.88, 15.86, 0.000, 0.000, 0.000, 10:21:53.733, 7
194, 5.97, 9.70, 14.22, 15.19, 0.000, 0.000, 0.000, 10:21:53.734, 7
195, 15.25, 14.91, 20.68, 11.03, 0.000, 0.000, 0.000, 10:21:53.749, 7
196, 14.87, 12.90, 22.21, 16.96, 0.000, 0.000, 0.000, 10:21:53.749, 7
197, 10.88, 13.42, 16.47, 14.31, 0.000, 0.000, 0.000, 10:21:53.750, 7
198, 12.60, 10.82, 10.60, 8.83, 0.000, 0.000, 0.000, 10:21:53.750, 7
199, 16.53, 12.51, 12.75, 12.11, 0.000, 0.000, 0.000, 10:21:53.763, 7
200, 14.52, 15.83, 16.76, 17.24, 0.000, 0.000, 0.000, 10:21:53.764, 7
0, 14.76, 12.72, 16.86, 13.88, 0.000, 0.000, 0.000, 10:21:53.774, 7
1, 6.56, 10.98, 8.27, 11.43, 0.000, 0.000, 0.000, 10:21:53.778, 7
2, 16.31, 12.41, 14.18, 15.37, 0.000, 0.000, 0.000, 10:21:53.779, 7
3, 18.90, 14.88, 18.54, 19.08, 0.000, 0.000, 0.000, 10:21:53.793, 7
4, 16.69, 11.85, 16.12, 15.97, 0.000, 0.000, 0.000, 10:21:53.794, 7
5, 17.51, 13.57, 13.45, 7.50, 0.000, 0.000, 0.000, 10:21:53.794, 7
6, 13.94, 9.90, 7.76, 8.38, 0.000, 0.000, 0.000, 10:21:53.794, 7
7, 13.55, 12.66, 26.27, 17.74, 0.000, 0.000, 0.000, 10:21:53.809, 7
8, 19.06, 18.93, 22.87, 19.35, 0.000, 0.000, 0.000, 10:21:53.809, 7
9, 11.95, 11.36, 12.82, 13.09, 0.000, 0.000, 0.000, 10:21:53.824, 7
10, 12.28, 8.02, 14.98, 14.58, 0.000, 0.000, 0.000, 10:21:53.824, 7
11, 11.60, 13.54, 18.90, 19.78, 0.000, 0.000, 0.000, 10:21:53.839, 7
12, 16.81, 14.94, 15.33, 17.09, 0.000, 0.000, 0.000, 10:21:53.840, 7
13, 8.38, 11.53, 15.31, 7.93, 0.000, 0.000, 0.000, 10:21:53.840, 7
14, 14.90, 14.07, 17.71, 15.03, 0.000, 0.000, 0.000, 10:21:53.841, 7
15, 13.11, 14.15, 18.73, 16.78, 0.000, 0.000, 0.000, 10:21:53.853, 7
16, 14.55, 10.57, 19.75, 16.91, 0.000, 0.000, 0.000, 10:21:53.853, 7
17, 10.92, 9.89, 12.01, 10.91, 0.000, 0.000, 0.000, 10:21:53.855, 7
18, 11.87, 12.31, 14.93, 13.81, 0.000, 0.000, 0.000, 10:21:53.857, 7
19, 14.13, 16.14, 17.99, 15.84, 0.000, 0.000, 0.000, 10:21:53.868, 7
20, 21.93, 11.74, 17.92, 15.73, 0.000, 0.000, 0.000, 10:21:53.868, 7
21, 9.38, 11.03, 11.43, 13.28, 0.000, 0.000, 0.000, 10:21:53.883, 7
22, 18.60, 11.06, 17.19, 10.01, 0.000, 0.000, 0.000, 10:21:53.883, 7
23, 12.94, 16.30, 19.98, 20.35, 0.000, 0.000, 0.000, 10:21:53.883, 7
24, 19.89, 13.50, 19.93, 14.24, 0.000, 0.000, 0.000, 10:21:53.883, 7
25, 10.18, 8.44, 12.92, 13.13, 0.000, 0.000, 0.000, 10:21:53.898, 7
26, 15.21, 10.50, 19.69, 14.44, 0.000, 0.000, 0.000, 10:21:53.898, 7
27, 16.52, 17.34, 21.58, 23.30, 0.000, 0.000, 0.000, 10:21:53.913, 7
28, 18.47, 12.92, 20.10, 20.23, 0.000, 0.000, 0.000, 10:21:53.913, 7
29, 7.25, 12.23, 14.51, 15.40, 0.000, 0.000, 0.000, 10:21:53.913, 7
30, 18.90, 9.30, 20.48, 15.27, 0.000, 0.000, 0.000, 10:21:53.913, 7
31, 21.62, 18.19, 17.38, 16.35, 0.000, 0.000, 0.000, 10:21:53.927, 7
32, 13.71, 9.30, 18.41, 15.28, 0.000, 0.000, 0.000, 10:21:53.928, 7
33, 8.50, 8.06, 9.15, 11.59, 0.000, 0.000, 0.000, 10:21:53.942, 7
34, 9.23, 13.69, 13.72, 16.50, 0.000, 0.000, 0.000, 10:21:53.943, 7
35, 11.92, 16.80, 20.19, 22.74, 0.000, 0.000, 0.000, 10:21:53.943, 7
36, 15.71, 11.71, 13.73, 15.70, 0.000, 0.000, 0.000, 10:21:53.943, 7
37, 9.97, 9.56, 11.78, 12.46, 0.000, 0.000, 0.000, 10:21:53.957, 7
38, 11.03, 8.60, 17.59, 16.00, 0.000, 0.000, 0.000, 10:21:53.958, 7
39, 20.25, 16.25, 15.55, 15.89, 0.000, 0.000, 0.000, 10:21:53.974, 7
40, 11.46, 11.17, 18.54, 17.49, 0.000, 0.000, 0.000, 10:21:53.974, 7
41, 10.18, 8.67, 14.75, 6.29, 0.000, 0.000, 0.000, 10:21:53.975, 7
42, 12.00, 9.48, 12.33, 11.83, 0.000, 0.000, 0.000, 10:21:53.975, 7
43, 15.08, 17.31, 19.35, 18.71, 0.000, 0.000, 0.000, 10:21:53.989, 7
44, 14.70, 12.94, 14.06, 15.20, 0.000, 0.000, 0.000, 10:21:53.989, 7
45, 15.04, 8.92, 13.72, 13.26, 0.000, 0.000, 0.000, 10:21:54.019, 7
46, 6.91, 7.66, 17.27, 17.48, 0.000, 0.000, 0.000, 10:21:54.019, 7
47, 24.45, 16.18, 23.77, 24.44, 0.000, 0.000, 0.000, 10:21:54.032, 7
48, 16.71, 13.33, 19.01, 21.88, 0.000, 0.000, 0.000, 10:21:54.032, 7
49, 17.43, 4.70, 19.57, 10.85, 0.000, 0.000, 0.000, 10:21:54.037, 7
50, 13.41, 9.32, 15.75, 14.92, 0.000, 0.000, 0.000, 10:21:54.038, 7
51, 20.33, 17.78, 16.75, 17.57, 0.000, 0.000, 0.000, 10:21:54.039, 7
52, 15.65, 13.25, 15.11, 17.96, 0.000, 0.000, 0.000, 10:21:54.039, 7
53, 11.61, 11.41, 13.24, 14.62, 0.000, 0.000, 0.000, 10:21:54.048, 7
54, 5.42, 10.22, 15.07, 14.67, 0.000, 0.000, 0.000, 10:21:54.048, 7
55, 14.69, 15.16, 19.45, 20.69, 0.000, 0.000, 0.000, 10:21:54.049, 7
56, 14.60, 13.67, 15.98, 13.07, 0.000, 0.000, 0.000, 10:21:54.049, 7
57, 11.80, 14.43, 12.47, 12.29, 0.000, 0.000, 0.000, 10:21:54.063, 7
58, 9.71, 9.11, 12.69, 13.81, 0.000, 0.000, 0.000, 10:21:54.063, 7
59, 15.28, 16.14, 18.93, 11.69, 0.000, 0.000, 0.000, 10:21:54.078, 7
60, 15.92, 13.74, 21.25, 14.26, 0.000, 0.000, 0.000, 10:21:54.078, 7
61, 12.46, 10.08, 8.84, 11.71, 0.000, 0.000, 0.000, 10:21:54.094, 7
62, 7.39, 11.29, 14.53, 17.01, 0.000, 0.000, 0.000, 10:21:54.094, 7
63, 15.34, 17.68, 22.42, 20.47, 0.000, 0.000, 0.000, 10:21:54.094, 7
64, 12.97, 12.93, 16.75, 17.81, 0.000, 0.000, 0.000, 10:21:54.094, 7
65, 7.88, 5.98, 12.25, 12.08, 0.000, 0.000, 0.000, 10:21:54.095, 7
66, 15.03, 9.33, 16.59, 15.79, 0.000, 0.000, 0.000, 10:21:54.095, 7
67, 16.00, 17.20, 15.36, 17.10, 0.000, 0.000, 0.000, 10:21:54.108, 7
68, 17.65, 13.75, 20.87, 19.75, 0.000, 0.000, 0.000, 10:21:54.108, 7
69, 9.58, 7.57, 14.05, 12.86, 0.000, 0.000, 0.000, 10:21:54.123, 7
70, 11.14, 7.64, 12.92, 11.67, 0.000, 0.000, 0.000, 10:21:54.123, 7
71, 17.61, 14.10, 18.62, 18.26, 0.000, 0.000, 0.000, 10:21:54.123, 7
72, 13.70, 15.51, 19.76, 13.11, 0.000, 0.000, 0.000, 10:21:54.124, 7
73, 13.36, 13.93, 14.38, 11.48, 0.000, 0.000, 0.000, 10:21:54.139, 7
74, 5.96, 7.95, 15.54, 10.82, 0.000, 0.000, 0.000, 10:21:54.139, 7
75, 12.02, 13.70, 18.42, 13.42, 0.000, 0.000, 0.000, 10:21:54.153, 7
76, 17.37, 15.13, 19.15, 21.43, 0.000, 0.000, 0.000, 10:21:54.154, 7
77, 4.55, 11.13, 11.83, 16.05, 0.000, 0.000, 0.000, 10:21:54.169, 7
78, 17.49, 10.45, 12.63, 17.69, 0.000, 0.000, 0.000, 10:21:54.170, 7
79, 15.70, 16.87, 20.50, 19.38, 0.000, 0.000, 0.000, 10:21:54.171, 7
80, 17.40, 13.92, 20.93, 20.98, 0.000, 0.000, 0.000, 10:21:54.171, 7
81, 16.45, 6.52, 12.46, 10.56, 0.000, 0.000, 0.000, 10:21:54.183, 7
82, 10.41, 6.09, 15.07, 11.74, 0.000, 0.000, 0.000, 10:21:54.183, 7
83, 15.83, 14.30, 22.06, 18.29, 0.000, 0.000, 0.000, 10:21:54.183, 7
84, 14.27, 15.97, 20.93, 20.28, 0.000, 0.000, 0.000, 10:21:54.183, 7
85, 13.85, 7.42, 11.03, 15.52, 0.000, 0.000, 0.000, 10:21:54.198, 7
86, 8.87, 12.53, 14.58, 14.32, 0.000, 0.000, 0.000, 10:21:54.198, 7
87, 14.72, 18.18, 19.51, 12.26, 0.000, 0.000, 0.000, 10:21:54.213, 7
88, 13.33, 12.05, 20.94, 7.06, 0.000, 0.000, 0.000, 10:21:54.213, 7
89, 11.40, 10.10, 11.41, 8.07, 0.000, 0.000, 0.000, 10:21:54.228, 7
90, 11.33, 7.47, 12.76, 15.75, 0.000, 0.000, 0.000, 10:21:54.229, 7
91, 12.68, 19.20, 18.52, 15.13, 0.000, 0.000, 0.000, 10:21:54.229, 7
92, 13.89, 10.55, 15.32, 13.96, 0.000, 0.000, 0.000, 10:21:54.229, 7
93, 15.45, 7.23, 11.41, 10.64, 0.000, 0.000, 0.000, 10:21:54.243, 7
94, 8.57, 8.14, 18.01, 12.31, 0.000, 0.000, 0.000, 10:21:54.244, 7
95, 17.27, 14.10, 15.34, 17.75, 0.000, 0.000, 0.000, 10:21:54.244, 7
96, 18.85, 13.70, 18.35, 15.19, 0.000, 0.000, 0.000, 10:21:54.244, 7
97, 10.19, 7.45, 10.39, 14.23, 0.000, 0.000, 0.000, 10:21:54.258, 7
98, 14.15, 11.25, 19.97, 11.34, 0.000, 0.000, 0.000, 10:21:54.259, 7
99, 12.81, 15.91, 19.20, 14.36, 0.000, 0.000, 0.000, 10:21:54.276, 7
100, 13.53, 16.17, 17.54, 15.40, 0.000, 0.000, 0.000, 10:21:54.277, 7
101, 13.28, 8.04, 15.28, 13.96, 0.000, 0.000, 0.000, 10:21:54.277, 7
102, 13.06, 11.43, 17.43, 12.29, 0.000, 0.000, 0.000, 10:21:54.278, 7
103, 18.27, 17.05, 17.90, 18.25, 0.000, 0.000, 0.000, 10:21:54.289, 7
104, 13.21, 15.71, 19.90, 20.78, 0.000, 0.000, 0.000, 10:21:54.289, 7
105, 14.06, 10.54, 12.82, 15.13, 0.000, 0.000, 0.000, 10:21:54.306, 7
106, 5.70, 8.44, 17.32, 12.62, 0.000, 0.000, 0.000, 10:21:54.307, 7
107, 15.65, 14.03, 17.67, 16.21, 0.000, 0.000, 0.000, 10:21:54.307, 7
108, 16.81, 14.46, 13.41, 23.47, 0.000, 0.000, 0.000, 10:21:54.308, 7
109, 12.77, 12.50, 15.96, 18.08, 0.000, 0.000, 0.000, 10:21:54.319, 7
110, 17.36, 10.50, 16.96, 14.40, 0.000, 0.000, 0.000, 10:21:54.319, 7
111, 14.95, 14.72, 18.71, 22.64, 0.000, 0.000, 0.000, 10:21:54.332, 7
112, 10.74, 11.98, 20.18, 16.02, 0.000, 0.000, 0.000, 10:21:54.333, 7
113, 14.07, 9.06, 13.10, 8.54, 0.000, 0.000, 0.000, 10:21:54.333, 7
114, 11.84, 14.36, 12.70, 13.83, 0.000, 0.000, 0.000, 10:21:54.333, 7
115, 14.84, 11.85, 21.52, 20.83, 0.000, 0.000, 0.000, 10:21:54.347, 7
116, 14.93, 15.51, 18.62, 16.85, 0.000, 0.000, 0.000, 10:21:54.347, 7
117, 9.78, 8.47, 9.96, 15.19, 0.000, 0.000, 0.000, 10:21:54.362, 7
118, 16.55, 11.34, 11.72, 15.40, 0.000, 0.000, 0.000, 10:21:54.362, 7
119, 19.95, 17.17, 19.71, 23.36, 0.000, 0.000, 0.000, 10:21:54.363, 7
120, 17.18, 16.48, 19.61, 19.92, 0.000, 0.000, 0.000, 10:21:54.363, 7
121, 12.05, 8.83, 13.48, 11.48, 0.000, 0.000, 0.000, 10:21:54.377, 7
122, 14.33, 12.61, 17.50, 14.56, 0.000, 0.000, 0.000, 10:21:54.377, 7
123, 17.71, 13.87, 21.07, 17.03, 0.000, 0.000, 0.000, 10:21:54.392, 7
124, 16.78, 13.89, 20.34, 18.12, 0.000, 0.000, 0.000, 10:21:54.392, 7
125, 9.72, 9.62, 12.16, 14.27, 0.000, 0.000, 0.000, 10:21:54.393, 7
126, 17.61, 12.91, 12.55, 16.94, 0.000, 0.000, 0.000, 10:21:54.393, 7
127, 13.37, 13.92, 21.33, 22.29, 0.000, 0.000, 0.000, 10:21:54.407, 7
128, 12.35, 12.65, 18.03, 21.83, 0.000, 0.000, 0.000, 10:21:54.407, 7
129, 8.55, 10.23, 10.18, 11.01, 0.000, 0.000, 0.000, 10:21:54.422, 7
130, 11.99, 10.71, 15.56, 7.99, 0.000, 0.000, 0.000, 10:21:54.422, 7
131, 13.49, 18.61, 19.73, 15.47, 0.000, 0.000, 0.000, 10:21:54.423, 7
132, 12.88, 12.81, 21.58, 16.45, 0.000, 0.000, 0.000, 10:21:54.423, 7
133, 13.58, 6.90, 12.12, 8.37, 0.000, 0.000, 0.000, 10:21:54.438, 7
134, 7.43, 12.90, 17.69, 10.93, 0.000, 0.000, 0.000, 10:21:54.438, 7
135, 17.51, 16.36, 18.16, 14.14, 0.000, 0.000, 0.000, 10:21:54.453, 7
136, 15.10, 15.19, 18.68, 17.89, 0.000, 0.000, 0.000, 10:21:54.455, 7
137, 10.35, 8.91, 14.38, 9.72, 0.000, 0.000, 0.000, 10:21:54.456, 7
138, 7.37, 10.04, 16.68, 14.17, 0.000, 0.000, 0.000, 10:21:54.456, 7
139, 16.32, 15.01, 19.33, 16.62, 0.000, 0.000, 0.000, 10:21:54.469, 7
140, 14.59, 14.15, 19.10, 13.96, 0.000, 0.000, 0.000, 10:21:54.470, 7
141, 9.88, 8.54, 13.57, 11.89, 0.000, 0.000, 0.000, 10:21:54.483, 7
142, 14.05, 6.21, 9.02, 11.83, 0.000, 0.000, 0.000, 10:21:54.483, 7
143, 19.82, 15.42, 21.34, 18.62, 0.000, 0.000, 0.000, 10:21:54.484, 7
144, 12.20, 11.00, 12.58, 12.54, 0.000, 0.000, 0.000, 10:21:54.484, 7
145, 13.26, 10.99, 12.08, 8.88, 0.000, 0.000, 0.000, 10:21:54.498, 7
146, 7.96, 8.81, 11.33, 7.42, 0.000, 0.000, 0.000, 10:21:54.499, 7
147, 18.53, 15.81, 23.05, 16.77, 0.000, 0.000, 0.000, 10:21:54.513, 7
148, 16.61, 17.84, 16.10, 18.57, 0.000, 0.000, 0.000, 10:21:54.513, 7
149, 5.97, 8.81, 12.97, 15.47, 0.000, 0.000, 0.000, 10:21:54.514, 7
150, 13.01, 8.32, 13.45, 16.30, 0.000, 0.000, 0.000, 10:21:54.514, 7
151, 12.02, 15.51, 18.76, 15.63, 0.000, 0.000, 0.000, 10:21:54.528, 7
152, 18.49, 13.24, 14.25, 17.27, 0.000, 0.000, 0.000, 10:21:54.528, 7
153, 18.16, 10.52, 10.64, 15.15, 0.000, 0.000, 0.000, 10:21:54.543, 7
154, 11.71, 13.39, 14.00, 12.60, 0.000, 0.000, 0.000, 10:21:54.543, 7
155, 15.03, 15.37, 20.00, 15.28, 0.000, 0.000, 0.000, 10:21:54.558, 7
156, 21.58, 14.71, 20.15, 12.91, 0.000, 0.000, 0.000, 10:21:54.558, 7
157, 8.61, 9.48, 10.18, 15.86, 0.000, 0.000, 0.000, 10:21:54.558, 7
158, 14.52, 3.95, 14.57, 15.13, 0.000, 0.000, 0.000, 10:21:54.558, 7
159, 10.95, 15.36, 20.75, 18.31, 0.000, 0.000, 0.000, 10:21:54.604, 7
160, 22.46, 12.63, 15.02, 16.56, 0.000, 0.000, 0.000, 10:21:54.604, 7
161, 14.79, 14.09, 16.19, 16.98, 0.000, 0.000, 0.000, 10:21:54.606, 7
162, 11.70, 11.33, 14.32, 13.81, 0.000, 0.000, 0.000, 10:21:54.606, 7
163, 20.86, 16.90, 19.94, 18.09, 0.000, 0.000, 0.000, 10:21:54.607, 7
164, 13.00, 14.88, 20.25, 17.51, 0.000, 0.000, 0.000, 10:21:54.607, 7
165, 12.24, 6.90, 12.86, 14.27, 0.000, 0.000, 0.000, 10:21:54.619, 7
166, 6.91, 7.69, 18.03, 11.47, 0.000, 0.000, 0.000, 10:21:54.619, 7
167, 18.46, 15.55, 19.95, 17.76, 0.000, 0.000, 0.000, 10:21:54.620, 7
168, 8.46, 15.89, 16.37, 16.24, 0.000, 0.000, 0.000, 10:21:54.620, 7
169, 10.18, 7.98, 16.78, 13.04, 0.000, 0.000, 0.000, 10:21:54.620, 7
170, 10.29, 9.24, 14.82, 14.18, 0.000, 0.000, 0.000, 10:21:54.620, 7
171, 17.06, 14.62, 18.39, 20.26, 0.000, 0.000, 0.000, 10:21:54.621, 7
172, 14.96, 11.32, 20.38, 20.41, 0.000, 0.000, 0.000, 10:21:54.621, 7
173, 13.33, 11.96, 15.40, 14.22, 0.000, 0.000, 0.000, 10:21:54.633, 7
174, 12.31, 7.24, 10.47, 15.14, 0.000, 0.000, 0.000, 10:21:54.633, 7
175, 17.30, 17.70, 20.77, 16.52, 0.000, 0.000, 0.000, 10:21:54.648, 7
176, 12.36, 16.02, 22.65, 14.30, 0.000, 0.000, 0.000, 10:21:54.648, 7
177, 11.66, 7.80, 15.04, 16.16, 0.000, 0.000, 0.000, 10:21:54.662, 7
178, 14.63, 8.22, 16.91, 11.59, 0.000, 0.000, 0.000, 10:21:54.663, 7
179, 11.37, 18.18, 17.24, 15.57, 0.000, 0.000, 0.000, 10:21:54.663, 7
180, 11.30, 13.69, 14.38, 19.05, 0.000, 0.000, 0.000, 10:21:54.663, 7
181, 20.24, 11.56, 18.11, 15.48, 0.000, 0.000, 0.000, 10:21:54.678, 7
182, 14.26, 13.03, 12.95, 16.88, 0.000, 0.000, 0.000, 10:21:54.678, 7
183, 17.92, 16.87, 19.27, 17.07, 0.000, 0.000, 0.000, 10:21:54.692, 7
184, 17.30, 17.51, 21.98, 18.26, 0.000, 0.000, 0.000, 10:21:54.693, 7
185, 15.21, 13.40, 18.11, 10.74, 0.000, 0.000, 0.000, 10:21:54.693, 7
186, 9.21, 15.00, 15.36, 16.08, 0.000, 0.000, 0.000, 10:21:54.693, 7
187, 16.52, 13.43, 18.45, 18.66, 0.000, 0.000, 0.000, 10:21:54.707, 7
188, 13.52, 12.95, 18.70, 19.59, 0.000, 0.000, 0.000, 10:21:54.708, 7
189, 9.35, 9.00, 13.09, 15.35, 0.000, 0.000, 0.000, 10:21:54.723, 7
190, 14.59, 7.25, 13.83, 12.05, 0.000, 0.000, 0.000, 10:21:54.723, 7
191, 14.70, 16.08, 19.28, 18.27, 0.000, 0.000, 0.000, 10:21:54.723, 7
192, 17.98, 13.22, 15.62, 16.58, 0.000, 0.000, 0.000, 10:21:54.723, 7
193, 9.30, 5.94, 11.76, 10.29, 0.000, 0.000, 0.000, 10:21:54.784, 7
194, 14.46, 10.71, 12.72, 13.68, 0.000, 0.000, 0.000, 10:21:54.784, 7
195, 15.60, 17.47, 19.83, 16.18, 0.000, 0.000, 0.000, 10:21:54.799, 7
196, 14.51, 16.53, 19.11, 15.81, 0.000, 0.000, 0.000, 10:21:54.799, 7
197, 6.62, 9.86, 10.98, 13.93, 0.000, 0.000, 0.000, 10:21:54.800, 7
198, 12.62, 6.32, 17.01, 16.88, 0.000, 0.000, 0.000, 10:21:54.800, 7
199, 20.05, 11.54, 19.49, 18.25, 0.000, 0.000, 0.000, 10:21:54.801, 7
200, 15.25, 15.31, 17.69, 20.58, 0.000, 0.000, 0.000, 10:21:54.801, 7
0, 14.52, 7.67, 10.20, 10.31, 0.000, 0.000, 0.000, 10:21:54.802, 7
1, 6.68, 6.45, 12.90, 10.44, 0.000, 0.000, 0.000, 10:21:54.803, 7
2, 17.74, 12.89, 19.01, 16.78, 0.000, 0.000, 0.000, 10:21:54.804, 7
3, 12.16, 11.64, 22.28, 15.25, 0.000, 0.000, 0.000, 10:21:54.814, 7
4, 11.96, 13.13, 12.45, 9.76, 0.000, 0.000, 0.000, 10:21:54.814, 7
5, 11.49, 7.40, 11.83, 13.55, 0.000, 0.000, 0.000, 10:21:54.814, 7
6, 14.39, 11.69, 16.66, 19.25, 0.000, 0.000, 0.000, 10:21:54.815, 7
7, 17.77, 14.74, 18.36, 18.59, 0.000, 0.000, 0.000, 10:21:54.815, 7
8, 9.19, 13.12, 14.96, 12.75, 0.000, 0.000, 0.000, 10:21:54.815, 7
9, 11.87, 6.71, 12.29, 13.04, 0.000, 0.000, 0.000, 10:21:54.816, 7
10, 16.20, 15.89, 21.02, 20.38, 0.000, 0.000, 0.000, 10:21:54.816, 7
11, 18.45, 15.06, 21.28, 16.28, 0.000, 0.000, 0.000, 10:21:54.829, 7
12, 11.81, 13.47, 16.00, 11.37, 0.000, 0.000, 0.000, 10:21:54.829, 7
13, 13.29, 10.41, 18.49, 15.57, 0.000, 0.000, 0.000, 10:21:54.844, 7
14, 14.56, 15.97, 19.32, 19.50, 0.000, 0.000, 0.000, 10:21:54.844, 7
15, 12.21, 14.11, 13.75, 20.98, 0.000, 0.000, 0.000, 10:21:54.858, 7
16, 12.50, 7.38, 10.93, 8.78, 0.000, 0.000, 0.000, 10:21:54.859, 7
17, 9.54, 9.62, 18.54, 11.02, 0.000, 0.000, 0.000, 10:21:54.866, 7
18, 16.94, 12.90, 20.22, 16.44, 0.000, 0.000, 0.000, 10:21:54.866, 7
19, 18.62, 16.78, 19.24, 21.57, 0.000, 0.000, 0.000, 10:21:54.874, 7
20, 21.74, 11.26, 15.95, 12.68, 0.000, 0.000, 0.000, 10:21:54.875, 7
21, 24.67, 12.33, 14.61, 15.15, 0.000, 0.000, 0.000, 10:21:54.888, 7
22, 13.79, 16.81, 18.72, 18.73, 0.000, 0.000, 0.000, 10:21:54.889, 7
23, 11.82, 11.51, 17.11, 20.98, 0.000, 0.000, 0.000, 10:21:54.890, 7
24, 2.23, 10.53, 11.37, 12.55, 0.000, 0.000, 0.000, 10:21:54.891, 7
25, 6.17, 11.23, 14.75, 12.81, 0.000, 0.000, 0.000, 10:21:54.904, 7
26, 17.71, 14.91, 19.27, 18.73, 0.000, 0.000, 0.000, 10:21:54.904, 7
27, 16.48, 16.51, 17.21, 15.61, 0.000, 0.000, 0.000, 10:21:54.919, 7
28, 13.82, 8.76, 13.74, 12.47, 0.000, 0.000, 0.000, 10:21:54.919, 7
29, 10.82, 13.25, 16.88, 14.17, 0.000, 0.000, 0.000, 10:21:54.920, 7
30, 15.55, 14.89, 18.45, 15.87, 0.000, 0.000, 0.000, 10:21:54.920, 7
31, 18.10, 13.40, 21.11, 15.39, 0.000, 0.000, 0.000, 10:21:54.933, 7
32, 11.65, 12.58, 11.84, 15.41, 0.000, 0.000, 0.000, 10:21:54.933, 7
33, 10.74, 13.42, 16.70, 18.32, 0.000, 0.000, 0.000, 10:21:54.948, 7
34, 16.67, 14.10, 17.62, 17.98, 0.000, 0.000, 0.000, 10:21:54.948, 7
35, 12.43, 16.55, 18.67, 16.34, 0.000, 0.000, 0.000, 10:21:54.956, 7
36, 8.71, 6.62, 10.77, 14.77, 0.000, 0.000, 0.000, 10:21:54.956, 7
37, 8.61, 12.32, 15.13, 14.50, 0.000, 0.000, 0.000, 10:21:54.963, 7
38, 12.62, 13.60, 19.35, 17.79, 0.000, 0.000, 0.000, 10:21:54.963, 7
39, 12.64, 16.83, 16.40, 18.86, 0.000, 0.000, 0.000, 10:21:54.980, 7
40, 13.96, 15.89, 18.27, 17.71, 0.000, 0.000, 0.000, 10:21:54.980, 7
41, 10.06, 11.06, 16.79, 13.80, 0.000, 0.000, 0.000, 10:21:54.980, 7
42, 16.34, 16.36, 19.68, 21.72, 0.000, 0.000, 0.000, 10:21:54.980, 7
43, 19.82, 13.09, 16.49, 23.37, 0.000, 0.000, 0.000, 10:21:54.993, 7
44, 14.00, 11.35, 13.23, 19.39, 0.000, 0.000, 0.000, 10:21:54.993, 7
45, 15.99, 10.03, 15.22, 9.99, 0.000, 0.000, 0.000, 10:21:55.008, 7
46, 11.14, 10.82, 21.19, 21.80, 0.000, 0.000, 0.000, 10:21:55.008, 7
47, 17.63, 11.88, 19.75, 21.27, 0.000, 0.000, 0.000, 10:21:55.008, 7
48, 7.95, 9.64, 11.11, 14.88, 0.000, 0.000, 0.000, 10:21:55.009, 7
49, 14.43, 13.23, 16.05, 16.26, 0.000, 0.000, 0.000, 10:21:55.023, 7
50, 17.28, 12.43, 21.55, 18.25, 0.000, 0.000, 0.000, 10:21:55.023, 7
51, 15.42, 13.57, 16.90, 19.83, 0.000, 0.000, 0.000, 10:21:55.038, 7
52, 13.67, 8.15, 11.81, 12.41, 0.000, 0.000, 0.000, 10:21:55.039, 7
53, 11.95, 8.30, 12.61, 13.16, 0.000, 0.000, 0.000, 10:21:55.040, 7
54, 21.68, 15.71, 21.77, 19.96, 0.000, 0.000, 0.000, 10:21:55.041, 7
55, 15.32, 14.45, 16.29, 17.99, 0.000, 0.000, 0.000, 10:21:55.054, 7
56, 11.30, 6.71, 12.65, 9.03, 0.000, 0.000, 0.000, 10:21:55.054, 7
57, 10.76, 13.16, 12.80, 6.54, 0.000, 0.000, 0.000, 10:21:55.068, 7
58, 12.31, 12.61, 20.61, 17.31, 0.000, 0.000, 0.000, 10:21:55.069, 7
59, 15.54, 13.91, 21.18, 17.69, 0.000, 0.000, 0.000, 10:21:55.070, 7
60, 10.73, 8.39, 10.55, 16.55, 0.000, 0.000, 0.000, 10:21:55.070, 7
61, 9.80, 10.87, 15.11, 14.99, 0.000, 0.000, 0.000, 10:21:55.083, 7
62, 15.22, 13.72, 18.32, 21.33, 0.000, 0.000, 0.000, 10:21:55.084, 7
63, 19.35, 17.29, 21.27, 22.03, 0.000, 0.000, 0.000, 10:21:55.098, 7
64, 9.12, 9.43, 16.03, 13.36, 0.000, 0.000, 0.000, 10:21:55.098, 7
65, 13.62, 7.95, 11.88, 12.37, 0.000, 0.000, 0.000, 10:21:55.099, 7
66, 8.89, 12.34, 21.39, 16.34, 0.000, 0.000, 0.000, 10:21:55.099, 7
67, 21.21, 14.53, 13.28, 17.54, 0.000, 0.000, 0.000, 10:21:55.113, 7
68, 10.99, 9.16, 12.65, 10.57, 0.000, 0.000, 0.000, 10:21:55.113, 7
69, 12.69, 10.77, 14.84, 13.23, 0.000, 0.000, 0.000, 10:21:55.128, 7
70, 15.24, 18.76, 23.16, 18.08, 0.000, 0.000, 0.000, 10:21:55.129, 7
71, 14.18, 17.85, 22.82, 15.31, 0.000, 0.000, 0.000, 10:21:55.130, 7
72, 10.40, 5.92, 10.94, 6.71, 0.000, 0.000, 0.000, 10:21:55.130, 7
73, 10.11, 11.57, 14.86, 15.97, 0.000, 0.000, 0.000, 10:21:55.160, 7
74, 11.31, 15.57, 13.90, 18.45, 0.000, 0.000, 0.000, 10:21:55.161, 7
75, 12.44, 13.90, 19.09, 17.53, 0.000, 0.000, 0.000, 10:21:55.161, 7
76, 13.82, 11.78, 14.82, 8.25, 0.000, 0.000, 0.000, 10:21:55.162, 7
77, 11.08, 10.17, 11.73, 12.36, 0.000, 0.000, 0.000, 10:21:55.162, 7
78, 15.78, 15.50, 21.47, 17.98, 0.000, 0.000, 0.000, 10:21:55.163, 7
79, 20.66, 15.08, 19.31, 17.94, 0.000, 0.000, 0.000, 10:21:55.174, 7
80, 11.68, 9.44, 12.58, 11.24, 0.000, 0.000, 0.000, 10:21:55.174, 7
81, 15.76, 10.36, 13.76, 11.58, 0.000, 0.000, 0.000, 10:21:55.189, 7
82, 9.89, 14.00, 18.39, 18.21, 0.000, 0.000, 0.000, 10:21:55.190, 7
83, 15.26, 17.27, 18.30, 20.85, 0.000, 0.000, 0.000, 10:21:55.190, 7
84, 10.77, 9.06, 11.45, 6.68, 0.000, 0.000, 0.000, 10:21:55.191, 7
85, 4.18, 11.21, 15.85, 15.62, 0.000, 0.000, 0.000, 10:21:55.207, 7
86, 11.44, 17.16, 18.25, 16.37, 0.000, 0.000, 0.000, 10:21:55.207, 7
87, 17.48, 13.13, 16.89, 15.03, 0.000, 0.000, 0.000, 10:21:55.219, 7
88, 10.95, 11.40, 13.23, 13.08, 0.000, 0.000, 0.000, 10:21:55.220, 7
89, 12.98, 10.61, 13.27, 13.15, 0.000, 0.000, 0.000, 10:21:55.222, 7
90, 16.27, 12.51, 18.49, 17.98, 0.000, 0.000, 0.000, 10:21:55.222, 7
91, 19.21, 15.76, 17.93, 20.35, 0.000, 0.000, 0.000, 10:21:55.234, 7
92, 15.22, 11.49, 16.37, 10.62, 0.000, 0.000, 0.000, 10:21:55.235, 7
93, 12.53, 10.95, 11.40, 11.96, 0.000, 0.000, 0.000, 10:21:55.249, 7
94, 19.49, 15.01, 19.25, 17.86, 0.000, 0.000, 0.000, 10:21:55.250, 7
95, 17.12, 14.12, 16.26, 15.66, 0.000, 0.000, 0.000, 10:21:55.250, 7
96, 11.86, 7.26, 14.09, 13.58, 0.000, 0.000, 0.000, 10:21:55.251, 7
97, 13.70, 13.56, 14.78, 14.59, 0.000, 0.000, 0.000, 10:21:55.264, 7
98, 12.68, 11.45, 24.12, 19.66, 0.000, 0.000, 0.000, 10:21:55.265, 7
99, 16.61, 11.03, 21.31, 12.46, 0.000, 0.000, 0.000, 10:21:55.279, 7
100, 12.38, 14.10, 14.19, 13.95, 0.000, 0.000, 0.000, 10:21:55.279, 7
101, 10.44, 7.26, 11.70, 8.78, 0.000, 0.000, 0.000, 10:21:55.280, 7
102, 13.44, 16.19, 22.23, 22.81, 0.000, 0.000, 0.000, 10:21:55.281, 7
103, 17.68, 14.90, 16.92, 18.35, 0.000, 0.000, 0.000, 10:21:55.295, 7
104, 10.13, 10.19, 10.57, 14.90, 0.000, 0.000, 0.000, 10:21:55.295, 7
105, 15.68, 8.46, 17.31, 15.15, 0.000, 0.000, 0.000, 10:21:55.309, 7
106, 9.89, 11.60, 17.94, 18.76, 0.000, 0.000, 0.000, 10:21:55.310, 7
107, 13.89, 11.85, 17.12, 17.41, 0.000, 0.000, 0.000, 10:21:55.310, 7
108, 10.95, 5.48, 10.24, 17.60, 0.000, 0.000, 0.000, 10:21:55.311, 7
109, 10.93, 9.35, 16.18, 14.19, 0.000, 0.000, 0.000, 10:21:55.323, 7
110, 16.75, 15.91, 18.50, 15.28, 0.000, 0.000, 0.000, 10:21:55.325, 7
111, 13.00, 16.88, 19.38, 22.26, 0.000, 0.000, 0.000, 10:21:55.338, 7
112, 14.45, 8.61, 12.70, 15.87, 0.000, 0.000, 0.000, 10:21:55.339, 7
113, 22.12, 12.35, 15.13, 17.35, 0.000, 0.000, 0.000, 10:21:55.342, 7
114, 15.01, 15.54, 21.07, 22.72, 0.000, 0.000, 0.000, 10:21:55.342, 7
115, 12.97, 15.99, 19.04, 18.50, 0.000, 0.000, 0.000, 10:21:55.354, 7
116, 16.75, 11.69, 18.41, 9.76, 0.000, 0.000, 0.000, 10:21:55.354, 7
117, 12.69, 7.86, 16.26, 4.95, 0.000, 0.000, 0.000, 10:21:55.368, 7
118, 19.60, 16.78, 19.60, 17.62, 0.000, 0.000, 0.000, 10:21:55.369, 7
119, 14.25, 14.79, 20.96, 11.41, 0.000, 0.000, 0.000, 10:21:55.371, 7
120, 5.36, 8.46, 11.43, 1.89, 0.000, 0.000, 0.000, 10:21:55.371, 7
121, 7.18, 13.28, 11.10, 9.07, 0.000, 0.000, 0.000, 10:21:55.383, 7
122, 13.38, 17.70, 18.11, 15.04, 0.000, 0.000, 0.000, 10:21:55.384, 7
123, 12.91, 16.09, 20.05, 16.63, 0.000, 0.000, 0.000, 10:21:55.398, 7
124, 11.84, 10.28, 16.51, 12.62, 0.000, 0.000, 0.000, 10:21:55.398, 7
125, 18.29, 11.03, 14.87, 16.07, 0.000, 0.000, 0.000, 10:21:55.399, 7
126, 17.38, 10.40, 14.52, 18.78, 0.000, 0.000, 0.000, 10:21:55.399, 7
127, 9.96, 15.86, 18.80, 17.81, 0.000, 0.000, 0.000, 10:21:55.413, 7
128, 16.61, 14.73, 12.84, 10.41, 0.000, 0.000, 0.000, 10:21:55.413, 7
129, 20.42, 11.95, 16.18, 9.14, 0.000, 0.000, 0.000, 10:21:55.429, 7
130, 22.41, 14.57, 18.02, 17.78, 0.000, 0.000, 0.000, 10:21:55.429, 7
131, 18.67, 18.06, 15.65, 20.46, 0.000, 0.000, 0.000, 10:21:55.429, 7
132, 15.48, 10.41, 16.80, 13.22, 0.000, 0.000, 0.000, 10:21:55.429, 7
133, 10.93, 9.85, 14.85, 11.05, 0.000, 0.000, 0.000, 10:21:55.443, 7
134, 15.35, 14.97, 15.67, 15.56, 0.000, 0.000, 0.000, 10:21:55.444, 7
135, 15.35, 15.13, 20.71, 18.48, 0.000, 0.000, 0.000, 10:21:55.459, 7
136, 16.06, 6.42, 12.66, 10.97, 0.000, 0.000, 0.000, 10:21:55.459, 7
137, 12.39, 11.75, 14.14, 21.90, 0.000, 0.000, 0.000, 10:21:55.474, 7
138, 11.43, 14.10, 20.57, 20.41, 0.000, 0.000, 0.000, 10:21:55.474, 7
139, 17.47, 14.60, 19.50, 21.51, 0.000, 0.000, 0.000, 10:21:55.475, 7
140, 17.14, 11.67, 11.09, 16.20, 0.000, 0.000, 0.000, 10:21:55.475, 7
141, 9.35, 7.59, 16.59, 15.35, 0.000, 0.000, 0.000, 10:21:55.490, 7
142, 17.37, 13.91, 21.22, 16.98, 0.000, 0.000, 0.000, 10:21:55.490, 7
143, 16.95, 13.49, 17.57, 21.99, 0.000, 0.000, 0.000, 10:21:55.519, 7
144, 14.68, 8.21, 9.49, 9.95, 0.000, 0.000, 0.000, 10:21:55.520, 7
145, 10.50, 7.40, 15.08, 16.47, 0.000, 0.000, 0.000, 10:21:55.521, 7
146, 11.04, 13.55, 23.99, 19.06, 0.000, 0.000, 0.000, 10:21:55.522, 7
147, 9.11, 12.49, 18.38, 19.37, 0.000, 0.000, 0.000, 10:21:55.523, 7
148, 13.43, 8.84, 10.39, 12.54, 0.000, 0.000, 0.000, 10:21:55.523, 7
149, 15.19, 11.76, 11.62, 14.63, 0.000, 0.000, 0.000, 10:21:55.524, 7
150, 14.04, 18.59, 18.36, 20.21, 0.000, 0.000, 0.000, 10:21:55.525, 7
