%OpenBCI Raw EEG Data
%
%Sample Rate = 200.0 Hz
%First Column = SampleIndex
%Last Column = Timestamp 
%Other Columns = EEG data in microvolts followed by Accel Data (in G) interleaved with Aux Data
0, 10.22, 9.77, 13.33, 14.78, 0.000, 0.000, 0.000, 10:30:35.850, 7
1, 11.48, 15.26, 20.78, 17.20, 0.000, 0.000, 0.000, 10:30:35.862, 7
2, 18.01, 13.99, 21.09, 18.86, 0.000, 0.000, 0.000, 10:30:35.872, 7
3, 16.09, 12.64, 21.72, 12.71, 0.000, 0.000, 0.000, 10:30:35.874, 7
4, 5.91, 10.10, 15.82, 7.60, 0.000, 0.000, 0.000, 10:30:35.876, 7
5, 14.84, 14.32, 17.22, 16.56, 0.000, 0.000, 0.000, 10:30:35.878, 7
6, 14.14, 17.57, 16.49, 14.65, 0.000, 0.000, 0.000, 10:30:35.881, 7
7, 15.43, 10.22, 19.02, 11.37, 0.000, 0.000, 0.000, 10:30:35.888, 7
8, 12.61, 7.27, 13.75, 11.74, 0.000, 0.000, 0.000, 10:30:35.890, 7
9, 13.72, 11.48, 15.18, 15.69, 0.000, 0.000, 0.000, 10:30:35.908, 7
10, 15.19, 16.20, 17.84, 19.00, 0.000, 0.000, 0.000, 10:30:35.910, 7
11, 6.63, 11.87, 15.36, 14.19, 0.000, 0.000, 0.000, 10:30:35.913, 7
12, 14.29, 11.54, 14.50, 15.48, 0.000, 0.000, 0.000, 10:30:35.916, 7
13, 16.64, 14.68, 20.40, 19.97, 0.000, 0.000, 0.000, 10:30:35.918, 7
14, 18.19, 11.87, 21.70, 19.43, 0.000, 0.000, 0.000, 10:30:35.921, 7
15, 16.18, 12.60, 19.50, 12.44, 0.000, 0.000, 0.000, 10:30:35.934, 7
16, 6.74, 11.14, 11.93, 13.38, 0.000, 0.000, 0.000, 10:30:35.937, 7
17, 18.57, 12.99, 18.99, 10.22, 0.000, 0.000, 0.000, 10:30:35.938, 7
18, 15.77, 15.13, 20.85, 16.29, 0.000, 0.000, 0.000, 10:30:35.940, 7
19, 9.55, 10.55, 18.99, 15.03, 0.000, 0.000, 0.000, 10:30:35.947, 7
20, 17.00, 8.31, 17.96, 13.15, 0.000, 0.000, 0.000, 10:30:35.949, 7
21, 17.24, 15.93, 19.91, 14.72, 0.000, 0.000, 0.000, 10:30:35.966, 7
22, 14.20, 17.30, 17.69, 14.24, 0.000, 0.000, 0.000, 10:30:35.970, 7
23, 14.42, 10.78, 8.73, 19.14, 0.000, 0.000, 0.000, 10:30:35.973, 7
24, 13.64, 8.96, 1.45, 13.57, 0.000, 0.000, 0.000, 10:30:35.975, 7
25, 12.58, 15.27, 17.46, 15.49, 0.000, 0.000, 0.000, 10:30:35.976, 7
26, 14.22, 13.21, 13.97, 19.03, 0.000, 0.000, 0.000, 10:30:35.977, 7
27, 14.74, 10.52, 9.30, 15.92, 0.000, 0.000, 0.000, 10:30:35.991, 7
28, 13.71, 9.28, 14.91, 15.22, 0.000, 0.000, 0.000, 10:30:35.991, 7
29, 20.55, 15.62, 24.91, 12.98, 0.000, 0.000, 0.000, 10:30:35.992, 7
30, 15.13, 14.65, 15.23, 17.27, 0.000, 0.000, 0.000, 10:30:35.993, 7
31, 12.82, 11.99, 16.46, 14.76, 0.000, 0.000, 0.000, 10:30:36.006, 7
32, 11.62, 11.19, 16.43, 12.89, 0.000, 0.000, 0.000, 10:30:36.006, 7
33, 8.35, 15.78, 20.45, 18.29, 0.000, 0.000, 0.000, 10:30:36.021, 7
34, 15.58, 14.09, 21.55, 19.25, 0.000, 0.000, 0.000, 10:30:36.022, 7
35, 12.19, 11.14, 14.19, 16.10, 0.000, 0.000, 0.000, 10:30:36.030, 7
36, 5.32, 6.55, 16.78, 14.54, 0.000, 0.000, 0.000, 10:30:36.031, 7
37, 16.77, 13.93, 22.72, 15.76, 0.000, 0.000, 0.000, 10:30:36.036, 7
38, 19.76, 17.61, 17.89, 15.84, 0.000, 0.000, 0.000, 10:30:36.036, 7
39, 8.27, 10.80, 13.76, 11.85, 0.000, 0.000, 0.000, 10:30:36.052, 7
40, 12.52, 10.20, 6.52, 8.86, 0.000, 0.000, 0.000, 10:30:36.053, 7
41, 18.34, 17.01, 17.52, 13.64, 0.000, 0.000, 0.000, 10:30:36.053, 7
42, 11.97, 16.13, 21.15, 17.88, 0.000, 0.000, 0.000, 10:30:36.054, 7
43, 9.94, 9.33, 15.06, 12.70, 0.000, 0.000, 0.000, 10:30:36.068, 7
44, 16.81, 9.30, 8.22, 8.29, 0.000, 0.000, 0.000, 10:30:36.070, 7
45, 14.80, 13.97, 13.42, 17.58, 0.000, 0.000, 0.000, 10:30:36.083, 7
46, 11.21, 14.38, 19.58, 17.65, 0.000, 0.000, 0.000, 10:30:36.085, 7
47, 11.38, 11.24, 12.20, 16.42, 0.000, 0.000, 0.000, 10:30:36.087, 7
48, 17.47, 11.04, 11.58, 16.31, 0.000, 0.000, 0.000, 10:30:36.087, 7
49, 12.77, 15.29, 14.73, 14.52, 0.000, 0.000, 0.000, 10:30:36.099, 7
50, 15.96, 12.95, 14.40, 14.98, 0.000, 0.000, 0.000, 10:30:36.100, 7
51, 13.15, 11.95, 13.37, 12.37, 0.000, 0.000, 0.000, 10:30:36.112, 7
52, 17.21, 10.53, 14.08, 14.56, 0.000, 0.000, 0.000, 10:30:36.117, 7
53, 14.00, 16.03, 21.72, 21.29, 0.000, 0.000, 0.000, 10:30:36.120, 7
54, 14.25, 13.93, 18.21, 17.96, 0.000, 0.000, 0.000, 10:30:36.122, 7
55, 13.58, 10.58, 23.49, 12.95, 0.000, 0.000, 0.000, 10:30:36.127, 7
56, 16.46, 10.42, 14.26, 13.03, 0.000, 0.000, 0.000, 10:30:36.127, 7
57, 11.99, 11.25, 15.46, 16.04, 0.000, 0.000, 0.000, 10:30:36.142, 7
58, 19.61, 13.45, 19.65, 19.13, 0.000, 0.000, 0.000, 10:30:36.142, 7
59, 9.15, 9.45, 9.19, 12.92, 0.000, 0.000, 0.000, 10:30:36.143, 7
60, 15.38, 13.78, 18.73, 15.29, 0.000, 0.000, 0.000, 10:30:36.143, 7
61, 9.85, 12.61, 18.05, 17.58, 0.000, 0.000, 0.000, 10:30:36.157, 7
62, 19.57, 15.11, 22.44, 21.78, 0.000, 0.000, 0.000, 10:30:36.157, 7
63, 8.58, 8.72, 16.02, 10.73, 0.000, 0.000, 0.000, 10:30:36.172, 7
64, 16.42, 10.79, 11.12, 13.20, 0.000, 0.000, 0.000, 10:30:36.172, 7
65, 8.72, 19.93, 16.04, 20.76, 0.000, 0.000, 0.000, 10:30:36.173, 7
66, 18.02, 15.40, 23.73, 19.14, 0.000, 0.000, 0.000, 10:30:36.173, 7
67, 12.85, 11.26, 17.36, 16.44, 0.000, 0.000, 0.000, 10:30:36.186, 7
68, 13.15, 7.35, 15.32, 14.13, 0.000, 0.000, 0.000, 10:30:36.187, 7
69, 21.38, 14.90, 23.75, 15.68, 0.000, 0.000, 0.000, 10:30:36.202, 7
70, 13.39, 14.52, 16.97, 19.78, 0.000, 0.000, 0.000, 10:30:36.202, 7
71, 18.79, 13.17, 12.33, 13.15, 0.000, 0.000, 0.000, 10:30:36.202, 7
72, 6.63, 11.54, 14.48, 11.33, 0.000, 0.000, 0.000, 10:30:36.202, 7
73, 14.82, 14.72, 23.05, 16.04, 0.000, 0.000, 0.000, 10:30:36.216, 7
74, 11.49, 13.64, 13.53, 16.89, 0.000, 0.000, 0.000, 10:30:36.217, 7
75, 12.07, 12.92, 13.30, 16.91, 0.000, 0.000, 0.000, 10:30:36.232, 7
76, 10.96, 5.82, 14.66, 9.17, 0.000, 0.000, 0.000, 10:30:36.234, 7
77, 17.86, 14.58, 13.74, 15.24, 0.000, 0.000, 0.000, 10:30:36.235, 7
78, 10.83, 18.74, 21.52, 16.38, 0.000, 0.000, 0.000, 10:30:36.235, 7
79, 9.72, 10.73, 17.41, 10.97, 0.000, 0.000, 0.000, 10:30:36.248, 7
80, 11.63, 10.47, 10.85, 13.68, 0.000, 0.000, 0.000, 10:30:36.248, 7
81, 20.10, 13.52, 20.83, 21.63, 0.000, 0.000, 0.000, 10:30:36.261, 7
82, 17.17, 15.91, 20.68, 18.64, 0.000, 0.000, 0.000, 10:30:36.262, 7
83, 13.53, 12.93, 16.96, 14.54, 0.000, 0.000, 0.000, 10:30:36.264, 7
84, 17.64, 8.56, 15.06, 15.02, 0.000, 0.000, 0.000, 10:30:36.265, 7
85, 12.21, 11.74, 22.47, 16.64, 0.000, 0.000, 0.000, 10:30:36.277, 7
86, 14.88, 12.60, 14.98, 16.07, 0.000, 0.000, 0.000, 10:30:36.277, 7
87, 9.09, 9.80, 13.97, 11.96, 0.000, 0.000, 0.000, 10:30:36.291, 7
88, 14.96, 14.64, 14.69, 11.51, 0.000, 0.000, 0.000, 10:30:36.291, 7
89, 12.80, 13.35, 13.79, 16.06, 0.000, 0.000, 0.000, 10:30:36.299, 7
90, 17.23, 17.13, 17.41, 16.17, 0.000, 0.000, 0.000, 10:30:36.300, 7
91, 9.92, 15.55, 9.86, 11.02, 0.000, 0.000, 0.000, 10:30:36.306, 7
92, 10.53, 13.73, 15.96, 15.96, 0.000, 0.000, 0.000, 10:30:36.306, 7
93, 17.25, 16.24, 20.76, 17.48, 0.000, 0.000, 0.000, 10:30:36.321, 7
94, 15.43, 14.71, 16.35, 15.99, 0.000, 0.000, 0.000, 10:30:36.321, 7
95, 11.82, 8.00, 12.77, 11.83, 0.000, 0.000, 0.000, 10:30:36.322, 7
96, 10.05, 7.20, 14.30, 11.77, 0.000, 0.000, 0.000, 10:30:36.322, 7
97, 17.99, 12.62, 27.74, 15.11, 0.000, 0.000, 0.000, 10:30:36.336, 7
98, 14.14, 16.45, 19.83, 18.56, 0.000, 0.000, 0.000, 10:30:36.336, 7
99, 15.02, 13.29, 8.74, 18.04, 0.000, 0.000, 0.000, 10:30:36.351, 7
100, 8.20, 12.83, 18.15, 11.50, 0.000, 0.000, 0.000, 10:30:36.351, 7
101, 12.92, 11.71, 16.77, 19.96, 0.000, 0.000, 0.000, 10:30:36.352, 7
102, 16.95, 10.61, 18.21, 15.77, 0.000, 0.000, 0.000, 10:30:36.352, 7
103, 14.98, 9.58, 9.69, 16.43, 0.000, 0.000, 0.000, 10:30:36.367, 7
104, 10.14, 13.74, 20.42, 14.69, 0.000, 0.000, 0.000, 10:30:36.368, 7
105, 17.35, 15.95, 19.63, 17.81, 0.000, 0.000, 0.000, 10:30:36.381, 7
106, 20.28, 15.08, 22.49, 20.40, 0.000, 0.000, 0.000, 10:30:36.382, 7
107, 10.31, 9.24, 14.06, 13.07, 0.000, 0.000, 0.000, 10:30:36.397, 7
108, 14.16, 12.97, 15.89, 10.62, 0.000, 0.000, 0.000, 10:30:36.398, 7
109, 13.03, 15.38, 15.70, 14.34, 0.000, 0.000, 0.000, 10:30:36.400, 7
110, 15.29, 14.20, 19.43, 19.06, 0.000, 0.000, 0.000, 10:30:36.400, 7
111, 14.61, 15.76, 11.82, 14.79, 0.000, 0.000, 0.000, 10:30:36.411, 7
112, 9.22, 8.32, 9.49, 12.92, 0.000, 0.000, 0.000, 10:30:36.412, 7
113, 14.05, 14.69, 18.65, 19.69, 0.000, 0.000, 0.000, 10:30:36.413, 7
114, 14.57, 16.45, 14.41, 20.15, 0.000, 0.000, 0.000, 10:30:36.414, 7
115, 8.59, 6.58, 13.77, 15.22, 0.000, 0.000, 0.000, 10:30:36.426, 7
116, 12.49, 8.93, 15.98, 8.63, 0.000, 0.000, 0.000, 10:30:36.426, 7
117, 16.07, 14.95, 21.73, 16.93, 0.000, 0.000, 0.000, 10:30:36.442, 7
118, 16.80, 16.67, 19.28, 16.86, 0.000, 0.000, 0.000, 10:30:36.443, 7
119, 12.79, 11.59, 14.70, 12.49, 0.000, 0.000, 0.000, 10:30:36.443, 7
120, 11.55, 11.07, 16.24, 15.62, 0.000, 0.000, 0.000, 10:30:36.443, 7
121, 14.99, 14.88, 16.40, 19.15, 0.000, 0.000, 0.000, 10:30:36.457, 7
122, 19.70, 10.13, 12.71, 19.85, 0.000, 0.000, 0.000, 10:30:36.458, 7
123, 13.99, 11.32, 11.20, 18.75, 0.000, 0.000, 0.000, 10:30:36.472, 7
124, 9.33, 9.31, 18.87, 18.21, 0.000, 0.000, 0.000, 10:30:36.473, 7
125, 14.74, 13.71, 24.92, 19.24, 0.000, 0.000, 0.000, 10:30:36.473, 7
126, 13.25, 10.36, 26.12, 14.61, 0.000, 0.000, 0.000, 10:30:36.474, 7
127, 13.99, 10.38, 16.83, 16.20, 0.000, 0.000, 0.000, 10:30:36.487, 7
128, 11.30, 9.60, 15.67, 15.25, 0.000, 0.000, 0.000, 10:30:36.487, 7
129, 14.84, 10.18, 11.78, 21.80, 0.000, 0.000, 0.000, 10:30:36.502, 7
130, 16.68, 16.74, 10.45, 18.42, 0.000, 0.000, 0.000, 10:30:36.502, 7
131, 15.23, 11.00, 13.28, 13.67, 0.000, 0.000, 0.000, 10:30:36.502, 7
132, 10.58, 9.63, 17.63, 12.09, 0.000, 0.000, 0.000, 10:30:36.502, 7
133, 11.16, 15.11, 9.61, 16.63, 0.000, 0.000, 0.000, 10:30:36.518, 7
134, 17.07, 13.41, 10.57, 18.24, 0.000, 0.000, 0.000, 10:30:36.518, 7
135, 14.81, 10.98, 20.82, 10.60, 0.000, 0.000, 0.000, 10:30:36.532, 7
136, 11.17, 7.19, 15.81, 9.17, 0.000, 0.000, 0.000, 10:30:36.534, 7
137, 10.42, 17.05, 15.51, 13.17, 0.000, 0.000, 0.000, 10:30:36.534, 7
138, 13.47, 15.84, 21.66, 15.30, 0.000, 0.000, 0.000, 10:30:36.534, 7
139, 13.51, 12.43, 14.73, 13.06, 0.000, 0.000, 0.000, 10:30:36.547, 7
140, 14.31, 14.07, 11.30, 14.24, 0.000, 0.000, 0.000, 10:30:36.547, 7
141, 17.81, 15.70, 20.43, 15.74, 0.000, 0.000, 0.000, 10:30:36.561, 7
142, 16.31, 12.16, 21.24, 16.33, 0.000, 0.000, 0.000, 10:30:36.562, 7
143, 6.26, 13.36, 10.89, 15.34, 0.000, 0.000, 0.000, 10:30:36.563, 7
144, 9.91, 8.74, 15.42, 10.46, 0.000, 0.000, 0.000, 10:30:36.564, 7
145, 15.75, 14.12, 23.66, 15.93, 0.000, 0.000, 0.000, 10:30:36.577, 7
146, 16.32, 15.94, 20.60, 17.80, 0.000, 0.000, 0.000, 10:30:36.577, 7
147, 13.56, 12.87, 18.32, 13.65, 0.000, 0.000, 0.000, 10:30:36.592, 7
148, 11.57, 12.75, 14.29, 15.27, 0.000, 0.000, 0.000, 10:30:36.592, 7
149, 17.82, 13.96, 23.52, 15.40, 0.000, 0.000, 0.000, 10:30:36.592, 7
150, 18.01, 11.92, 20.71, 20.70, 0.000, 0.000, 0.000, 10:30:36.592, 7
151, 9.10, 11.20, 13.54, 14.55, 0.000, 0.000, 0.000, 10:30:36.607, 7
152, 9.21, 7.55, 9.76, 12.29, 0.000, 0.000, 0.000, 10:30:36.607, 7
153, 14.81, 16.15, 11.07, 18.63, 0.000, 0.000, 0.000, 10:30:36.622, 7
154, 16.75, 17.31, 16.89, 22.25, 0.000, 0.000, 0.000, 10:30:36.622, 7
155, 11.92, 11.84, 15.92, 14.69, 0.000, 0.000, 0.000, 10:30:36.622, 7
156, 14.09, 12.89, 15.27, 15.49, 0.000, 0.000, 0.000, 10:30:36.622, 7
157, 14.58, 10.92, 17.66, 19.05, 0.000, 0.000, 0.000, 10:30:36.637, 7
158, 11.16, 14.31, 20.07, 22.09, 0.000, 0.000, 0.000, 10:30:36.637, 7
159, 14.23, 10.04, 16.82, 15.07, 0.000, 0.000, 0.000, 10:30:36.652, 7
160, 11.74, 11.73, 11.65, 7.84, 0.000, 0.000, 0.000, 10:30:36.652, 7
161, 16.92, 10.79, 20.02, 15.92, 0.000, 0.000, 0.000, 10:30:36.653, 7
162, 14.44, 15.31, 19.30, 16.38, 0.000, 0.000, 0.000, 10:30:36.653, 7
163, 10.92, 11.70, 21.15, 16.20, 0.000, 0.000, 0.000, 10:30:36.674, 7
164, 4.24, 7.17, 9.46, 12.19, 0.000, 0.000, 0.000, 10:30:36.674, 7
165, 17.98, 14.29, 15.28, 13.79, 0.000, 0.000, 0.000, 10:30:36.682, 7
166, 15.02, 14.54, 12.20, 19.16, 0.000, 0.000, 0.000, 10:30:36.683, 7
167, 8.55, 8.86, 15.79, 12.61, 0.000, 0.000, 0.000, 10:30:36.685, 7
168, 20.99, 11.92, 13.82, 11.63, 0.000, 0.000, 0.000, 10:30:36.685, 7
169, 13.78, 14.46, 18.68, 15.08, 0.000, 0.000, 0.000, 10:30:36.697, 7
170, 16.53, 14.30, 21.75, 16.85, 0.000, 0.000, 0.000, 10:30:36.698, 7
171, 8.09, 10.97, 15.27, 15.57, 0.000, 0.000, 0.000, 10:30:36.712, 7
172, 9.14, 8.72, 15.61, 15.15, 0.000, 0.000, 0.000, 10:30:36.713, 7
173, 11.40, 15.98, 20.12, 17.90, 0.000, 0.000, 0.000, 10:30:36.716, 7
174, 18.93, 16.76, 24.31, 17.51, 0.000, 0.000, 0.000, 10:30:36.716, 7
175, 14.89, 11.74, 14.20, 14.43, 0.000, 0.000, 0.000, 10:30:36.726, 7
176, 15.28, 9.84, 6.93, 11.07, 0.000, 0.000, 0.000, 10:30:36.727, 7
177, 13.22, 13.50, 20.78, 18.82, 0.000, 0.000, 0.000, 10:30:36.742, 7
178, 17.65, 11.86, 23.11, 19.97, 0.000, 0.000, 0.000, 10:30:36.742, 7
179, 16.27, 10.29, 11.85, 17.96, 0.000, 0.000, 0.000, 10:30:36.742, 7
180, 12.65, 10.31, 16.38, 14.13, 0.000, 0.000, 0.000, 10:30:36.742, 7
181, 12.61, 13.46, 18.03, 17.67, 0.000, 0.000, 0.000, 10:30:36.756, 7
182, 19.00, 19.74, 15.86, 21.59, 0.000, 0.000, 0.000, 10:30:36.757, 7
183, 10.24, 9.60, 9.07, 15.75, 0.000, 0.000, 0.000, 10:30:36.771, 7
184, 9.79, 11.83, 12.95, 14.69, 0.000, 0.000, 0.000, 10:30:36.772, 7
185, 14.15, 15.53, 18.32, 20.20, 0.000, 0.000, 0.000, 10:30:36.772, 7
186, 8.54, 16.93, 21.52, 21.52, 0.000, 0.000, 0.000, 10:30:36.772, 7
187, 17.74, 8.27, 12.10, 13.74, 0.000, 0.000, 0.000, 10:30:36.787, 7
188, 10.37, 14.67, 15.40, 14.88, 0.000, 0.000, 0.000, 10:30:36.787, 7
189, 13.45, 12.68, 16.97, 18.75, 0.000, 0.000, 0.000, 10:30:36.801, 7
190, 16.82, 11.80, 13.99, 18.96, 0.000, 0.000, 0.000, 10:30:36.802, 7
191, 12.55, 8.43, 10.74, 16.34, 0.000, 0.000, 0.000, 10:30:36.802, 7
192, 11.16, 12.20, 12.82, 13.65, 0.000, 0.000, 0.000, 10:30:36.803, 7
193, 18.81, 14.16, 13.14, 18.16, 0.000, 0.000, 0.000, 10:30:36.817, 7
194, 18.26, 16.19, 24.60, 24.20, 0.000, 0.000, 0.000, 10:30:36.819, 7
195, 15.81, 13.46, 14.78, 14.02, 0.000, 0.000, 0.000, 10:30:36.833, 7
196, 11.07, 13.42, 15.25, 12.63, 0.000, 0.000, 0.000, 10:30:36.833, 7
197, 14.07, 15.90, 15.94, 18.58, 0.000, 0.000, 0.000, 10:30:36.835, 7
198, 14.84, 14.11, 15.43, 17.79, 0.000, 0.000, 0.000, 10:30:36.836, 7
199, 12.57, 17.35, 17.54, 12.37, 0.000, 0.000, 0.000, 10:30:36.848, 7
200, 12.25, 9.01, 15.44, 8.15, 0.000, 0.000, 0.000, 10:30:36.848, 7
0, 12.42, 13.73, 20.02, 16.31, 0.000, 0.000, 0.000, 10:30:36.848, 7
1, 19.96, 13.42, 11.65, 19.55, 0.000, 0.000, 0.000, 10:30:36.862, 7
2, 10.80, 8.79, 18.61, 14.64, 0.000, 0.000, 0.000, 10:30:36.862, 7
3, 14.61, 9.85, 17.14, 13.51, 0.000, 0.000, 0.000, 10:30:36.877, 7
4, 12.34, 13.37, 15.59, 18.02, 0.000, 0.000, 0.000, 10:30:36.877, 7
5, 17.56, 14.68, 26.12, 21.34, 0.000, 0.000, 0.000, 10:30:36.877, 7
6, 16.76, 8.95, 20.31, 15.66, 0.000, 0.000, 0.000, 10:30:36.878, 7
7, 7.75, 7.24, 13.09, 12.36, 0.000, 0.000, 0.000, 10:30:36.892, 7
8, 15.00, 15.06, 27.02, 12.74, 0.000, 0.000, 0.000, 10:30:36.892, 7
9, 15.68, 11.45, 18.82, 15.14, 0.000, 0.000, 0.000, 10:30:36.906, 7
10, 11.65, 6.05, 13.62, 8.38, 0.000, 0.000, 0.000, 10:30:36.907, 7
11, 12.51, 6.64, 10.15, 14.21, 0.000, 0.000, 0.000, 10:30:36.910, 7
12, 12.53, 12.24, 19.40, 16.37, 0.000, 0.000, 0.000, 10:30:36.911, 7
13, 14.53, 14.20, 20.24, 18.76, 0.000, 0.000, 0.000, 10:30:36.922, 7
14, 13.85, 12.12, 14.75, 13.36, 0.000, 0.000, 0.000, 10:30:36.922, 7
15, 14.27, 10.85, 17.67, 14.15, 0.000, 0.000, 0.000, 10:30:36.937, 7
16, 21.61, 12.32, 14.08, 16.51, 0.000, 0.000, 0.000, 10:30:36.937, 7
17, 15.78, 14.19, 13.98, 14.80, 0.000, 0.000, 0.000, 10:30:36.937, 7
18, 11.08, 8.18, 14.10, 11.42, 0.000, 0.000, 0.000, 10:30:36.937, 7
19, 12.47, 12.09, 11.72, 9.16, 0.000, 0.000, 0.000, 10:30:36.951, 7
20, 14.68, 13.48, 15.65, 18.59, 0.000, 0.000, 0.000, 10:30:36.952, 7
21, 17.67, 16.63, 19.01, 14.77, 0.000, 0.000, 0.000, 10:30:36.968, 7
22, 10.47, 13.51, 14.99, 15.66, 0.000, 0.000, 0.000, 10:30:36.969, 7
23, 10.42, 10.38, 11.62, 12.08, 0.000, 0.000, 0.000, 10:30:36.969, 7
24, 11.08, 15.92, 24.31, 17.37, 0.000, 0.000, 0.000, 10:30:36.970, 7
25, 12.67, 8.77, 21.17, 19.74, 0.000, 0.000, 0.000, 10:30:36.982, 7
26, 12.08, 14.16, 15.84, 21.33, 0.000, 0.000, 0.000, 10:30:36.982, 7
27, 11.38, 12.13, 18.41, 11.58, 0.000, 0.000, 0.000, 10:30:36.998, 7
28, 15.28, 12.36, 18.05, 14.34, 0.000, 0.000, 0.000, 10:30:36.999, 7
29, 15.06, 12.48, 14.17, 15.45, 0.000, 0.000, 0.000, 10:30:36.999, 7
30, 15.73, 8.31, 12.06, 9.92, 0.000, 0.000, 0.000, 10:30:37.000, 7
31, 16.03, 9.16, 14.05, 9.31, 0.000, 0.000, 0.000, 10:30:37.012, 7
32, 15.07, 14.48, 14.30, 14.84, 0.000, 0.000, 0.000, 10:30:37.013, 7
33, 17.62, 17.44, 21.79, 14.89, 0.000, 0.000, 0.000, 10:30:37.027, 7
34, 16.08, 12.35, 19.24, 15.33, 0.000, 0.000, 0.000, 10:30:37.028, 7
35, 13.34, 12.35, 13.51, 11.80, 0.000, 0.000, 0.000, 10:30:37.029, 7
36, 14.15, 12.85, 20.41, 16.24, 0.000, 0.000, 0.000, 10:30:37.031, 7
37, 14.47, 11.39, 14.57, 14.28, 0.000, 0.000, 0.000, 10:30:37.048, 7
38, 14.12, 14.51, 17.22, 13.17, 0.000, 0.000, 0.000, 10:30:37.049, 7
39, 9.89, 12.28, 14.18, 12.40, 0.000, 0.000, 0.000, 10:30:37.066, 7
40, 12.32, 11.83, 15.56, 19.38, 0.000, 0.000, 0.000, 10:30:37.067, 7
41, 10.04, 11.30, 14.75, 18.76, 0.000, 0.000, 0.000, 10:30:37.069, 7
42, 10.30, 11.14, 19.56, 19.84, 0.000, 0.000, 0.000, 10:30:37.069, 7
43, 10.00, 11.00, 8.91, 14.69, 0.000, 0.000, 0.000, 10:30:37.071, 7
44, 16.93, 15.10, 19.59, 19.53, 0.000, 0.000, 0.000, 10:30:37.072, 7
45, 16.66, 13.81, 17.32, 16.04, 0.000, 0.000, 0.000, 10:30:37.086, 7
46, 19.05, 9.02, 14.99, 15.27, 0.000, 0.000, 0.000, 10:30:37.087, 7
47, 10.58, 10.01, 11.54, 10.30, 0.000, 0.000, 0.000, 10:30:37.087, 7
48, 12.59, 11.80, 18.78, 17.50, 0.000, 0.000, 0.000, 10:30:37.088, 7
49, 18.55, 15.16, 18.00, 21.52, 0.000, 0.000, 0.000, 10:30:37.102, 7
50, 8.63, 12.87, 14.39, 19.10, 0.000, 0.000, 0.000, 10:30:37.104, 7
51, 14.46, 11.19, 13.17, 16.74, 0.000, 0.000, 0.000, 10:30:37.117, 7
52, 14.70, 12.78, 21.71, 18.44, 0.000, 0.000, 0.000, 10:30:37.118, 7
53, 13.26, 15.13, 20.80, 19.38, 0.000, 0.000, 0.000, 10:30:37.118, 7
54, 12.65, 12.81, 14.28, 20.43, 0.000, 0.000, 0.000, 10:30:37.118, 7
55, 9.00, 9.46, 14.25, 17.64, 0.000, 0.000, 0.000, 10:30:37.131, 7
56, 21.78, 13.54, 14.08, 11.70, 0.000, 0.000, 0.000, 10:30:37.131, 7
57, 14.36, 10.79, 20.26, 14.72, 0.000, 0.000, 0.000, 10:30:37.148, 7
58, 7.33, 12.18, 17.81, 11.75, 0.000, 0.000, 0.000, 10:30:37.148, 7
59, 10.46, 10.39, 13.53, 11.55, 0.000, 0.000, 0.000, 10:30:37.151, 7
60, 14.38, 11.49, 15.78, 18.19, 0.000, 0.000, 0.000, 10:30:37.152, 7
61, 17.10, 13.20, 13.99, 13.29, 0.000, 0.000, 0.000, 10:30:37.162, 7
62, 18.28, 10.28, 11.95, 16.19, 0.000, 0.000, 0.000, 10:30:37.163, 7
63, 4.72, 10.73, 13.41, 10.90, 0.000, 0.000, 0.000, 10:30:37.177, 7
64, 13.31, 13.02, 19.71, 17.58, 0.000, 0.000, 0.000, 10:30:37.177, 7
65, 16.52, 15.08, 23.71, 17.14, 0.000, 0.000, 0.000, 10:30:37.178, 7
66, 11.86, 10.82, 8.80, 12.82, 0.000, 0.000, 0.000, 10:30:37.178, 7
67, 14.06, 9.41, 21.81, 15.19, 0.000, 0.000, 0.000, 10:30:37.192, 7
68, 13.28, 17.03, 16.22, 17.37, 0.000, 0.000, 0.000, 10:30:37.192, 7
69, 28.66, 17.89, 17.74, 22.47, 0.000, 0.000, 0.000, 10:30:37.207, 7
70, 10.36, 10.49, 9.93, 17.57, 0.000, 0.000, 0.000, 10:30:37.207, 7
71, 7.50, 11.86, 11.53, 12.58, 0.000, 0.000, 0.000, 10:30:37.208, 7
72, 18.22, 17.62, 17.92, 16.40, 0.000, 0.000, 0.000, 10:30:37.208, 7
73, 15.72, 16.41, 22.14, 18.06, 0.000, 0.000, 0.000, 10:30:37.222, 7
74, 12.25, 14.44, 12.90, 11.45, 0.000, 0.000, 0.000, 10:30:37.222, 7
75, 11.75, 8.32, 12.55, 15.19, 0.000, 0.000, 0.000, 10:30:37.237, 7
76, 7.24, 13.79, 21.09, 16.12, 0.000, 0.000, 0.000, 10:30:37.237, 7
77, 7.77, 12.10, 19.87, 18.29, 0.000, 0.000, 0.000, 10:30:37.237, 7
78, 8.52, 10.16, 20.36, 13.91, 0.000, 0.000, 0.000, 10:30:37.237, 7
79, 26.99, 8.02, 21.43, 14.35, 0.000, 0.000, 0.000, 10:30:37.251, 7
80, 12.37, 13.87, 17.68, 15.94, 0.000, 0.000, 0.000, 10:30:37.251, 7
81, 11.30, 16.02, 21.35, 21.58, 0.000, 0.000, 0.000, 10:30:37.267, 7
82, 19.76, 11.00, 21.47, 13.95, 0.000, 0.000, 0.000, 10:30:37.268, 7
83, 6.04, 8.50, 14.22, 8.56, 0.000, 0.000, 0.000, 10:30:37.268, 7
84, 15.77, 11.93, 16.99, 15.49, 0.000, 0.000, 0.000, 10:30:37.268, 7
85, 21.94, 14.55, 18.98, 13.27, 0.000, 0.000, 0.000, 10:30:37.282, 7
86, 15.67, 14.17, 10.23, 13.87, 0.000, 0.000, 0.000, 10:30:37.283, 7
87, 12.01, 11.38, 5.82, 15.17, 0.000, 0.000, 0.000, 10:30:37.297, 7
88, 22.03, 11.70, 13.04, 13.83, 0.000, 0.000, 0.000, 10:30:37.298, 7
89, 13.03, 16.73, 22.98, 17.21, 0.000, 0.000, 0.000, 10:30:37.299, 7
90, 14.79, 12.61, 19.13, 12.96, 0.000, 0.000, 0.000, 10:30:37.300, 7
91, 8.75, 8.79, 11.49, 10.72, 0.000, 0.000, 0.000, 10:30:37.312, 7
92, 9.39, 15.18, 18.70, 18.54, 0.000, 0.000, 0.000, 10:30:37.314, 7
93, 7.09, 17.11, 17.06, 14.66, 0.000, 0.000, 0.000, 10:30:37.327, 7
94, 11.01, 11.19, 13.83, 17.00, 0.000, 0.000, 0.000, 10:30:37.328, 7
95, 11.76, 8.84, 10.53, 15.52, 0.000, 0.000, 0.000, 10:30:37.329, 7
96, 15.71, 11.98, 23.17, 17.04, 0.000, 0.000, 0.000, 10:30:37.329, 7
97, 16.47, 13.44, 18.26, 17.59, 0.000, 0.000, 0.000, 10:30:37.342, 7
98, 20.11, 12.86, 18.18, 17.44, 0.000, 0.000, 0.000, 10:30:37.343, 7
99, 17.34, 6.20, 11.13, 10.08, 0.000, 0.000, 0.000, 10:30:37.357, 7
100, 14.20, 14.05, 16.73, 17.04, 0.000, 0.000, 0.000, 10:30:37.358, 7
101, 21.89, 19.10, 21.73, 19.37, 0.000, 0.000, 0.000, 10:30:37.358, 7
102, 9.98, 10.38, 7.60, 11.11, 0.000, 0.000, 0.000, 10:30:37.358, 7
103, 17.99, 12.31, 13.92, 14.67, 0.000, 0.000, 0.000, 10:30:37.372, 7
104, 8.95, 9.86, 20.83, 13.44, 0.000, 0.000, 0.000, 10:30:37.376, 7
105, 14.48, 15.35, 19.60, 9.63, 0.000, 0.000, 0.000, 10:30:37.387, 7
106, 13.89, 15.48, 14.30, 11.27, 0.000, 0.000, 0.000, 10:30:37.387, 7
107, 19.31, 13.80, 12.63, 14.21, 0.000, 0.000, 0.000, 10:30:37.388, 7
108, 11.40, 13.07, 14.03, 17.11, 0.000, 0.000, 0.000, 10:30:37.389, 7
109, 15.46, 14.39, 18.51, 11.31, 0.000, 0.000, 0.000, 10:30:37.402, 7
110, 10.77, 12.42, 15.54, 15.76, 0.000, 0.000, 0.000, 10:30:37.403, 7
111, 7.71, 8.84, 10.30, 14.52, 0.000, 0.000, 0.000, 10:30:37.416, 7
112, 8.76, 9.52, 21.68, 15.74, 0.000, 0.000, 0.000, 10:30:37.417, 7
113, 22.54, 15.99, 27.66, 17.75, 0.000, 0.000, 0.000, 10:30:37.418, 7
114, 11.56, 10.19, 19.26, 18.87, 0.000, 0.000, 0.000, 10:30:37.419, 7
115, 6.70, 7.94, 8.01, 10.94, 0.000, 0.000, 0.000, 10:30:37.431, 7
116, 18.44, 15.77, 23.32, 13.57, 0.000, 0.000, 0.000, 10:30:37.431, 7
117, 13.50, 15.20, 18.07, 17.69, 0.000, 0.000, 0.000, 10:30:37.448, 7
118, 11.39, 11.16, 21.65, 12.74, 0.000, 0.000, 0.000, 10:30:37.448, 7
119, 12.46, 15.15, 11.57, 14.55, 0.000, 0.000, 0.000, 10:30:37.449, 7
120, 18.98, 14.11, 20.49, 19.94, 0.000, 0.000, 0.000, 10:30:37.450, 7
121, 18.59, 14.79, 13.89, 20.92, 0.000, 0.000, 0.000, 10:30:37.462, 7
122, 16.07, 9.91, 21.47, 16.22, 0.000, 0.000, 0.000, 10:30:37.464, 7
123, 10.73, 11.36, 15.80, 12.71, 0.000, 0.000, 0.000, 10:30:37.478, 7
124, 19.89, 10.94, 11.27, 15.72, 0.000, 0.000, 0.000, 10:30:37.478, 7
125, 7.52, 13.50, 17.13, 12.54, 0.000, 0.000, 0.000, 10:30:37.479, 7
126, 12.00, 13.82, 18.92, 12.76, 0.000, 0.000, 0.000, 10:30:37.480, 7
127, 8.81, 10.26, 17.73, 14.34, 0.000, 0.000, 0.000, 10:30:37.492, 7
128, 20.12, 14.93, 19.23, 19.80, 0.000, 0.000, 0.000, 10:30:37.493, 7
129, 12.70, 16.08, 16.40, 16.49, 0.000, 0.000, 0.000, 10:30:37.508, 7
130, 16.11, 10.49, 14.98, 16.77, 0.000, 0.000, 0.000, 10:30:37.508, 7
131, 9.44, 7.47, 16.12, 16.15, 0.000, 0.000, 0.000, 10:30:37.509, 7
132, 12.61, 13.04, 14.03, 19.81, 0.000, 0.000, 0.000, 10:30:37.509, 7
133, 18.82, 13.60, 19.62, 19.46, 0.000, 0.000, 0.000, 10:30:37.522, 7
134, 4.81, 9.91, 9.33, 12.33, 0.000, 0.000, 0.000, 10:30:37.522, 7
135, 15.01, 10.94, 15.07, 14.95, 0.000, 0.000, 0.000, 10:30:37.537, 7
136, 12.42, 12.00, 18.83, 20.05, 0.000, 0.000, 0.000, 10:30:37.537, 7
137, 17.34, 16.74, 14.54, 17.07, 0.000, 0.000, 0.000, 10:30:37.537, 7
138, 12.39, 11.34, 11.28, 14.44, 0.000, 0.000, 0.000, 10:30:37.537, 7
139, 5.29, 10.65, 12.80, 8.45, 0.000, 0.000, 0.000, 10:30:37.552, 7
140, 18.85, 14.80, 20.57, 18.13, 0.000, 0.000, 0.000, 10:30:37.552, 7
141, 17.69, 15.42, 30.60, 20.26, 0.000, 0.000, 0.000, 10:30:37.572, 7
142, 8.53, 8.26, 11.96, 9.80, 0.000, 0.000, 0.000, 10:30:37.572, 7
143, 9.23, 8.74, 15.82, 13.25, 0.000, 0.000, 0.000, 10:30:37.573, 7
144, 8.13, 15.46, 16.19, 20.25, 0.000, 0.000, 0.000, 10:30:37.573, 7
145, 14.77, 18.31, 14.78, 21.28, 0.000, 0.000, 0.000, 10:30:37.581, 7
146, 10.63, 11.95, 16.46, 20.30, 0.000, 0.000, 0.000, 10:30:37.582, 7
147, 12.22, 10.14, 18.92, 15.29, 0.000, 0.000, 0.000, 10:30:37.597, 7
148, 17.55, 11.87, 24.48, 16.69, 0.000, 0.000, 0.000, 10:30:37.598, 7
149, 11.32, 15.84, 24.33, 17.09, 0.000, 0.000, 0.000, 10:30:37.598, 7
150, 18.18, 13.57, 20.67, 12.02, 0.000, 0.000, 0.000, 10:30:37.599, 7
151, 15.75, 13.13, 14.42, 12.61, 0.000, 0.000, 0.000, 10:30:37.611, 7
152, 14.61, 13.22, 17.09, 16.47, 0.000, 0.000, 0.000, 10:30:37.612, 7
153, 15.35, 12.55, 15.13, 22.76, 0.000, 0.000, 0.000, 10:30:37.626, 7
154, 10.66, 9.51, 11.67, 16.69, 0.000, 0.000, 0.000, 10:30:37.627, 7
155, 11.57, 10.71, 9.49, 15.16, 0.000, 0.000, 0.000, 10:30:37.627, 7
156, 17.56, 15.55, 17.72, 15.17, 0.000, 0.000, 0.000, 10:30:37.627, 7
157, 9.26, 13.67, 16.63, 16.65, 0.000, 0.000, 0.000, 10:30:37.641, 7
158, 10.51, 7.67, 11.23, 10.68, 0.000, 0.000, 0.000, 10:30:37.641, 7
159, 14.00, 10.95, 14.18, 12.15, 0.000, 0.000, 0.000, 10:30:37.656, 7
160, 16.94, 13.37, 13.85, 18.93, 0.000, 0.000, 0.000, 10:30:37.657, 7
161, 17.94, 14.18, 11.75, 20.81, 0.000, 0.000, 0.000, 10:30:37.657, 7
162, 4.36, 11.55, 13.32, 12.76, 0.000, 0.000, 0.000, 10:30:37.657, 7
163, 20.58, 12.53, 16.86, 9.36, 0.000, 0.000, 0.000, 10:30:37.671, 7
164, 12.28, 11.92, 20.57, 16.53, 0.000, 0.000, 0.000, 10:30:37.672, 7
165, 17.46, 16.69, 22.65, 12.30, 0.000, 0.000, 0.000, 10:30:37.687, 7
166, 18.09, 10.98, 17.62, 11.99, 0.000, 0.000, 0.000, 10:30:37.687, 7
167, 12.09, 9.30, 12.43, 11.82, 0.000, 0.000, 0.000, 10:30:37.687, 7
168, 7.19, 17.21, 16.42, 17.33, 0.000, 0.000, 0.000, 10:30:37.688, 7
169, 20.77, 14.69, 16.24, 19.44, 0.000, 0.000, 0.000, 10:30:37.702, 7
170, 11.54, 14.13, 11.31, 16.40, 0.000, 0.000, 0.000, 10:30:37.702, 7
171, 12.80, 6.09, 16.87, 9.16, 0.000, 0.000, 0.000, 10:30:37.719, 7
172, 20.41, 14.27, 13.32, 16.92, 0.000, 0.000, 0.000, 10:30:37.719, 7
173, 11.61, 18.02, 20.45, 15.00, 0.000, 0.000, 0.000, 10:30:37.719, 7
174, 9.91, 12.93, 21.06, 16.75, 0.000, 0.000, 0.000, 10:30:37.720, 7
175, 9.02, 7.74, 13.56, 9.76, 0.000, 0.000, 0.000, 10:30:37.733, 7
176, 8.15, 11.67, 11.26, 14.79, 0.000, 0.000, 0.000, 10:30:37.734, 7
177, 14.71, 17.93, 22.69, 20.70, 0.000, 0.000, 0.000, 10:30:37.747, 7
178, 17.54, 14.01, 21.18, 17.58, 0.000, 0.000, 0.000, 10:30:37.747, 7
179, 10.13, 10.74, 11.37, 18.05, 0.000, 0.000, 0.000, 10:30:37.749, 7
180, 16.11, 14.51, 11.04, 13.16, 0.000, 0.000, 0.000, 10:30:37.750, 7
181, 24.00, 17.43, 21.17, 17.64, 0.000, 0.000, 0.000, 10:30:37.762, 7
182, 15.47, 15.25, 15.81, 13.60, 0.000, 0.000, 0.000, 10:30:37.765, 7
183, 17.66, 11.59, 22.55, 9.05, 0.000, 0.000, 0.000, 10:30:37.777, 7
184, 8.92, 14.46, 19.99, 14.99, 0.000, 0.000, 0.000, 10:30:37.777, 7
185, 13.71, 15.76, 20.41, 11.38, 0.000, 0.000, 0.000, 10:30:37.777, 7
186, 16.24, 13.10, 12.23, 16.32, 0.000, 0.000, 0.000, 10:30:37.777, 7
187, 11.00, 13.30, 10.37, 11.72, 0.000, 0.000, 0.000, 10:30:37.792, 7
188, 13.24, 15.76, 18.89, 16.86, 0.000, 0.000, 0.000, 10:30:37.792, 7
189, 13.33, 16.53, 18.25, 13.18, 0.000, 0.000, 0.000, 10:30:37.807, 7
190, 20.92, 12.62, 18.85, 14.83, 0.000, 0.000, 0.000, 10:30:37.807, 7
191, 3.43, 5.02, 14.92, 11.81, 0.000, 0.000, 0.000, 10:30:37.807, 7
192, 13.99, 14.22, 19.29, 17.29, 0.000, 0.000, 0.000, 10:30:37.807, 7
193, 20.88, 15.44, 19.50, 18.93, 0.000, 0.000, 0.000, 10:30:37.828, 7
194, 12.56, 4.05, 17.98, 16.01, 0.000, 0.000, 0.000, 10:30:37.829, 7
195, 13.47, 6.73, 15.22, 14.46, 0.000, 0.000, 0.000, 10:30:37.836, 7
196, 14.44, 17.58, 17.91, 13.98, 0.000, 0.000, 0.000, 10:30:37.837, 7
197, 11.61, 12.93, 16.16, 18.75, 0.000, 0.000, 0.000, 10:30:37.837, 7
198, 14.14, 13.54, 12.46, 15.82, 0.000, 0.000, 0.000, 10:30:37.837, 7
199, 9.73, 13.17, 12.95, 16.98, 0.000, 0.000, 0.000, 10:30:37.851, 7
200, 16.26, 15.13, 17.20, 18.21, 0.000, 0.000, 0.000, 10:30:37.852, 7
0, 7.98, 15.04, 18.21, 16.10, 0.000, 0.000, 0.000, 10:30:37.852, 7
1, 11.23, 12.74, 7.02, 14.48, 0.000, 0.000, 0.000, 10:30:37.869, 7
2, 9.78, 13.74, 17.48, 8.00, 0.000, 0.000, 0.000, 10:30:37.869, 7
3, 15.89, 14.36, 18.73, 18.51, 0.000, 0.000, 0.000, 10:30:37.883, 7
4, 11.05, 12.93, 18.74, 15.20, 0.000, 0.000, 0.000, 10:30:37.883, 7
5, 18.83, 12.18, 16.45, 11.82, 0.000, 0.000, 0.000, 10:30:37.883, 7
6, 10.23, 13.51, 8.75, 14.42, 0.000, 0.000, 0.000, 10:30:37.883, 7
7, 11.29, 11.65, 16.60, 19.84, 0.000, 0.000, 0.000, 10:30:37.899, 7
8, 20.27, 17.79, 19.67, 19.83, 0.000, 0.000, 0.000, 10:30:37.899, 7
9, 8.09, 11.72, 18.21, 12.72, 0.000, 0.000, 0.000, 10:30:37.912, 7
10, 9.79, 8.07, 13.69, 11.75, 0.000, 0.000, 0.000, 10:30:37.913, 7
11, 18.69, 14.75, 14.10, 17.32, 0.000, 0.000, 0.000, 10:30:37.914, 7
12, 10.79, 14.10, 15.57, 16.28, 0.000, 0.000, 0.000, 10:30:37.914, 7
13, 18.29, 7.66, 14.71, 13.52, 0.000, 0.000, 0.000, 10:30:37.926, 7
14, 5.77, 9.27, 8.10, 8.54, 0.000, 0.000, 0.000, 10:30:37.926, 7
15, 19.50, 13.72, 13.97, 19.22, 0.000, 0.000, 0.000, 10:30:37.941, 7
16, 15.48, 15.00, 22.10, 21.10, 0.000, 0.000, 0.000, 10:30:37.941, 7
17, 16.00, 13.33, 17.62, 15.21, 0.000, 0.000, 0.000, 10:30:37.942, 7
18, 7.74, 11.78, 13.70, 11.49, 0.000, 0.000, 0.000, 10:30:37.942, 7
19, 22.32, 12.65, 6.70, 17.10, 0.000, 0.000, 0.000, 10:30:37.956, 7
20, 14.26, 13.88, 16.11, 15.89, 0.000, 0.000, 0.000, 10:30:37.956, 7
21, 11.92, 11.39, 19.17, 12.43, 0.000, 0.000, 0.000, 10:30:37.971, 7
22, 8.27, 5.68, 14.22, 10.49, 0.000, 0.000, 0.000, 10:30:37.971, 7
23, 12.44, 11.96, 20.20, 15.60, 0.000, 0.000, 0.000, 10:30:37.972, 7
24, 25.42, 16.78, 23.41, 20.95, 0.000, 0.000, 0.000, 10:30:37.972, 7
25, 9.25, 8.77, 19.05, 12.76, 0.000, 0.000, 0.000, 10:30:37.986, 7
26, 15.99, 8.51, 14.42, 14.26, 0.000, 0.000, 0.000, 10:30:37.987, 7
27, 12.72, 12.70, 18.58, 18.28, 0.000, 0.000, 0.000, 10:30:38.001, 7
28, 17.69, 20.78, 20.85, 17.18, 0.000, 0.000, 0.000, 10:30:38.002, 7
29, 11.84, 8.85, 22.33, 12.37, 0.000, 0.000, 0.000, 10:30:38.002, 7
30, 7.44, 4.26, 18.39, 12.73, 0.000, 0.000, 0.000, 10:30:38.002, 7
31, 16.64, 15.81, 21.21, 18.64, 0.000, 0.000, 0.000, 10:30:38.017, 7
32, 14.37, 17.09, 21.44, 22.76, 0.000, 0.000, 0.000, 10:30:38.017, 7
33, 10.54, 9.34, 16.35, 17.54, 0.000, 0.000, 0.000, 10:30:38.032, 7
34, 13.05, 5.51, 12.49, 13.74, 0.000, 0.000, 0.000, 10:30:38.033, 7
35, 15.77, 16.37, 20.98, 20.26, 0.000, 0.000, 0.000, 10:30:38.034, 7
36, 15.47, 16.12, 13.66, 21.03, 0.000, 0.000, 0.000, 10:30:38.035, 7
37, 11.13, 10.13, 14.61, 13.07, 0.000, 0.000, 0.000, 10:30:38.048, 7
38, 11.86, 8.06, 9.72, 7.30, 0.000, 0.000, 0.000, 10:30:38.048, 7
39, 17.01, 12.80, 14.46, 19.03, 0.000, 0.000, 0.000, 10:30:38.061, 7
40, 21.09, 16.48, 25.94, 19.35, 0.000, 0.000, 0.000, 10:30:38.061, 7
41, 7.18, 10.31, 18.15, 11.66, 0.000, 0.000, 0.000, 10:30:38.063, 7
42, 5.18, 8.97, 13.52, 10.28, 0.000, 0.000, 0.000, 10:30:38.064, 7
43, 18.71, 13.56, 21.11, 19.05, 0.000, 0.000, 0.000, 10:30:38.076, 7
44, 24.72, 19.48, 18.48, 20.39, 0.000, 0.000, 0.000, 10:30:38.076, 7
45, 14.84, 6.39, 10.44, 12.68, 0.000, 0.000, 0.000, 10:30:38.091, 7
46, 8.16, 4.38, 13.93, 6.01, 0.000, 0.000, 0.000, 10:30:38.091, 7
47, 21.48, 15.58, 16.64, 18.45, 0.000, 0.000, 0.000, 10:30:38.091, 7
48, 16.17, 20.54, 26.16, 23.42, 0.000, 0.000, 0.000, 10:30:38.091, 7
49, 8.72, 8.30, 10.21, 14.42, 0.000, 0.000, 0.000, 10:30:38.106, 7
50, 6.31, 8.04, 9.76, 11.58, 0.000, 0.000, 0.000, 10:30:38.106, 7
51, 14.64, 15.55, 22.16, 18.84, 0.000, 0.000, 0.000, 10:30:38.121, 7
52, 19.03, 18.56, 19.95, 19.80, 0.000, 0.000, 0.000, 10:30:38.121, 7
53, 13.60, 10.54, 13.00, 9.48, 0.000, 0.000, 0.000, 10:30:38.121, 7
54, 9.85, 5.49, 9.82, 15.85, 0.000, 0.000, 0.000, 10:30:38.121, 7
55, 19.60, 18.04, 19.50, 21.95, 0.000, 0.000, 0.000, 10:30:38.137, 7
56, 23.24, 17.91, 17.59, 21.50, 0.000, 0.000, 0.000, 10:30:38.137, 7
57, 4.93, 12.86, 9.54, 14.19, 0.000, 0.000, 0.000, 10:30:38.152, 7
58, 4.79, 5.53, 13.15, 7.87, 0.000, 0.000, 0.000, 10:30:38.152, 7
59, 17.12, 17.70, 13.43, 18.48, 0.000, 0.000, 0.000, 10:30:38.152, 7
60, 19.90, 15.66, 17.90, 16.10, 0.000, 0.000, 0.000, 10:30:38.152, 7
61, 7.80, 10.90, 15.24, 11.24, 0.000, 0.000, 0.000, 10:30:38.167, 7
62, 15.05, 9.36, 8.48, 14.39, 0.000, 0.000, 0.000, 10:30:38.167, 7
63, 27.71, 13.48, 20.98, 15.61, 0.000, 0.000, 0.000, 10:30:38.182, 7
64, 16.36, 16.22, 21.29, 16.19, 0.000, 0.000, 0.000, 10:30:38.183, 7
65, 7.99, 10.36, 15.62, 15.17, 0.000, 0.000, 0.000, 10:30:38.184, 7
66, 6.38, 6.56, 13.70, 12.12, 0.000, 0.000, 0.000, 10:30:38.185, 7
67, 22.02, 13.87, 20.27, 22.48, 0.000, 0.000, 0.000, 10:30:38.197, 7
68, 14.41, 15.94, 23.78, 20.49, 0.000, 0.000, 0.000, 10:30:38.197, 7
69, 13.59, 7.41, 16.64, 13.27, 0.000, 0.000, 0.000, 10:30:38.211, 7
70, 5.07, 11.29, 10.48, 10.94, 0.000, 0.000, 0.000, 10:30:38.212, 7
71, 11.23, 13.25, 17.54, 17.65, 0.000, 0.000, 0.000, 10:30:38.219, 7
72, 26.72, 11.98, 24.08, 21.57, 0.000, 0.000, 0.000, 10:30:38.219, 7
73, 12.57, 9.03, 15.39, 9.91, 0.000, 0.000, 0.000, 10:30:38.226, 7
74, 16.82, 8.62, 10.07, 11.13, 0.000, 0.000, 0.000, 10:30:38.227, 7
75, 16.49, 13.86, 14.97, 17.75, 0.000, 0.000, 0.000, 10:30:38.241, 7
76, 16.05, 17.66, 21.78, 17.26, 0.000, 0.000, 0.000, 10:30:38.242, 7
77, 15.29, 9.20, 9.58, 9.22, 0.000, 0.000, 0.000, 10:30:38.242, 7
78, 4.68, 8.92, 10.39, 10.57, 0.000, 0.000, 0.000, 10:30:38.242, 7
79, 7.38, 19.31, 18.24, 15.99, 0.000, 0.000, 0.000, 10:30:38.257, 7
80, 25.67, 20.75, 24.35, 21.32, 0.000, 0.000, 0.000, 10:30:38.257, 7
81, 16.36, 13.29, 9.17, 14.32, 0.000, 0.000, 0.000, 10:30:38.272, 7
82, 8.65, 11.24, 9.16, 9.19, 0.000, 0.000, 0.000, 10:30:38.272, 7
83, 19.20, 14.28, 18.87, 17.12, 0.000, 0.000, 0.000, 10:30:38.272, 7
84, 15.57, 17.64, 25.28, 26.29, 0.000, 0.000, 0.000, 10:30:38.272, 7
85, 12.33, 12.05, 20.97, 12.90, 0.000, 0.000, 0.000, 10:30:38.286, 7
86, 6.97, 9.22, 10.70, 12.41, 0.000, 0.000, 0.000, 10:30:38.286, 7
87, 13.08, 11.55, 17.24, 22.90, 0.000, 0.000, 0.000, 10:30:38.301, 7
88, 17.62, 15.17, 17.73, 24.76, 0.000, 0.000, 0.000, 10:30:38.301, 7
89, 5.96, 8.04, 13.74, 7.25, 0.000, 0.000, 0.000, 10:30:38.302, 7
90, 9.86, 9.64, 5.65, 9.74, 0.000, 0.000, 0.000, 10:30:38.302, 7
91, 17.40, 13.56, 21.39, 17.09, 0.000, 0.000, 0.000, 10:30:38.317, 7
92, 17.35, 18.23, 24.16, 25.22, 0.000, 0.000, 0.000, 10:30:38.318, 7
93, 9.01, 11.54, 11.37, 14.94, 0.000, 0.000, 0.000, 10:30:38.332, 7
94, 10.34, 8.30, 20.10, 12.23, 0.000, 0.000, 0.000, 10:30:38.333, 7
95, 12.66, 13.13, 17.02, 19.07, 0.000, 0.000, 0.000, 10:30:38.334, 7
96, 13.20, 17.30, 19.37, 21.57, 0.000, 0.000, 0.000, 10:30:38.334, 7
97, 15.31, 12.14, 11.53, 14.37, 0.000, 0.000, 0.000, 10:30:38.347, 7
98, 14.00, 6.08, 15.59, 14.95, 0.000, 0.000, 0.000, 10:30:38.347, 7
99, 13.92, 15.01, 17.44, 22.04, 0.000, 0.000, 0.000, 10:30:38.361, 7
100, 16.60, 16.98, 24.43, 23.51, 0.000, 0.000, 0.000, 10:30:38.361, 7
101, 13.87, 12.81, 15.15, 16.12, 0.000, 0.000, 0.000, 10:30:38.363, 7
102, 3.82, 4.09, 10.22, 7.62, 0.000, 0.000, 0.000, 10:30:38.363, 7
103, 14.82, 17.14, 18.04, 18.57, 0.000, 0.000, 0.000, 10:30:38.376, 7
104, 12.52, 13.44, 17.90, 15.69, 0.000, 0.000, 0.000, 10:30:38.376, 7
105, 13.05, 5.37, 14.85, 9.23, 0.000, 0.000, 0.000, 10:30:38.391, 7
106, 12.45, 3.28, 12.14, 15.30, 0.000, 0.000, 0.000, 10:30:38.391, 7
107, 18.42, 16.40, 21.43, 22.11, 0.000, 0.000, 0.000, 10:30:38.392, 7
108, 15.95, 17.81, 20.87, 22.27, 0.000, 0.000, 0.000, 10:30:38.392, 7
109, 10.57, 11.35, 13.74, 12.00, 0.000, 0.000, 0.000, 10:30:38.406, 7
110, 12.13, 8.42, 10.07, 7.86, 0.000, 0.000, 0.000, 10:30:38.406, 7
111, 18.63, 12.47, 22.08, 17.46, 0.000, 0.000, 0.000, 10:30:38.421, 7
112, 13.55, 14.95, 17.20, 13.73, 0.000, 0.000, 0.000, 10:30:38.421, 7
113, 9.87, 15.19, 18.06, 9.79, 0.000, 0.000, 0.000, 10:30:38.421, 7
114, 13.49, 9.08, 12.43, 7.69, 0.000, 0.000, 0.000, 10:30:38.422, 7
115, 17.28, 14.57, 26.56, 16.80, 0.000, 0.000, 0.000, 10:30:38.436, 7
116, 19.53, 17.70, 19.20, 17.23, 0.000, 0.000, 0.000, 10:30:38.436, 7
117, 12.76, 7.14, 19.77, 14.20, 0.000, 0.000, 0.000, 10:30:38.451, 7
118, 7.64, 10.72, 9.03, 9.98, 0.000, 0.000, 0.000, 10:30:38.451, 7
119, 14.62, 13.96, 18.64, 16.82, 0.000, 0.000, 0.000, 10:30:38.451, 7
120, 19.72, 16.50, 16.21, 19.12, 0.000, 0.000, 0.000, 10:30:38.451, 7
121, 17.40, 10.94, 16.47, 17.45, 0.000, 0.000, 0.000, 10:30:38.467, 7
122, 10.89, 8.24, 13.20, 13.27, 0.000, 0.000, 0.000, 10:30:38.467, 7
123, 16.06, 15.47, 25.23, 17.51, 0.000, 0.000, 0.000, 10:30:38.481, 7
124, 20.10, 11.60, 20.44, 21.51, 0.000, 0.000, 0.000, 10:30:38.482, 7
125, 14.08, 9.83, 13.07, 17.09, 0.000, 0.000, 0.000, 10:30:38.483, 7
126, 10.79, 3.72, 6.68, 9.11, 0.000, 0.000, 0.000, 10:30:38.484, 7
127, 12.86, 18.47, 21.26, 20.28, 0.000, 0.000, 0.000, 10:30:38.496, 7
128, 25.72, 20.56, 22.20, 18.21, 0.000, 0.000, 0.000, 10:30:38.496, 7
129, 12.65, 10.90, 16.27, 13.31, 0.000, 0.000, 0.000, 10:30:38.512, 7
130, 4.78, 7.06, 14.25, 11.54, 0.000, 0.000, 0.000, 10:30:38.512, 7
131, 11.31, 13.99, 12.19, 19.37, 0.000, 0.000, 0.000, 10:30:38.513, 7
132, 21.44, 17.71, 17.24, 22.68, 0.000, 0.000, 0.000, 10:30:38.514, 7
133, 7.33, 12.13, 6.03, 17.47, 0.000, 0.000, 0.000, 10:30:38.527, 7
134, 5.07, 8.27, 8.68, 9.88, 0.000, 0.000, 0.000, 10:30:38.527, 7
135, 18.64, 19.10, 18.08, 18.45, 0.000, 0.000, 0.000, 10:30:38.542, 7
136, 19.94, 16.19, 19.79, 19.13, 0.000, 0.000, 0.000, 10:30:38.542, 7
137, 10.23, 13.90, 18.05, 15.20, 0.000, 0.000, 0.000, 10:30:38.542, 7
138, 6.56, 9.24, 9.50, 10.32, 0.000, 0.000, 0.000, 10:30:38.543, 7
139, 17.58, 16.02, 17.10, 17.37, 0.000, 0.000, 0.000, 10:30:38.557, 7
140, 22.24, 19.38, 23.95, 23.19, 0.000, 0.000, 0.000, 10:30:38.557, 7
141, 14.85, 11.61, 14.60, 13.58, 0.000, 0.000, 0.000, 10:30:38.572, 7
142, 8.34, 4.41, 9.14, 12.62, 0.000, 0.000, 0.000, 10:30:38.572, 7
143, 14.36, 14.37, 24.63, 17.06, 0.000, 0.000, 0.000, 10:30:38.572, 7
144, 21.18, 16.16, 25.56, 23.55, 0.000, 0.000, 0.000, 10:30:38.572, 7
145, 11.08, 14.76, 17.20, 13.28, 0.000, 0.000, 0.000, 10:30:38.587, 7
146, 7.34, 9.69, 13.16, 14.87, 0.000, 0.000, 0.000, 10:30:38.587, 7
147, 18.19, 17.12, 16.99, 17.28, 0.000, 0.000, 0.000, 10:30:38.602, 7
148, 21.12, 16.89, 24.34, 22.71, 0.000, 0.000, 0.000, 10:30:38.602, 7
149, 7.22, 9.12, 6.87, 14.55, 0.000, 0.000, 0.000, 10:30:38.603, 7
150, 8.26, 6.94, 2.92, 7.02, 0.000, 0.000, 0.000, 10:30:38.603, 7
151, 13.51, 14.45, 22.43, 17.55, 0.000, 0.000, 0.000, 10:30:38.625, 7
152, 18.19, 18.90, 22.79, 20.45, 0.000, 0.000, 0.000, 10:30:38.625, 7
153, 14.10, 9.35, 10.35, 12.95, 0.000, 0.000, 0.000, 10:30:38.632, 7
154, 6.81, 4.85, 8.49, 8.24, 0.000, 0.000, 0.000, 10:30:38.633, 7
155, 14.57, 11.17, 21.63, 16.85, 0.000, 0.000, 0.000, 10:30:38.636, 7
156, 19.70, 17.90, 21.44, 23.66, 0.000, 0.000, 0.000, 10:30:38.636, 7
157, 11.62, 11.27, 8.72, 14.23, 0.000, 0.000, 0.000, 10:30:38.647, 7
158, 10.98, 9.92, 11.29, 12.46, 0.000, 0.000, 0.000, 10:30:38.648, 7
159, 16.84, 16.85, 25.63, 19.96, 0.000, 0.000, 0.000, 10:30:38.662, 7
160, 19.14, 15.31, 32.01, 20.69, 0.000, 0.000, 0.000, 10:30:38.662, 7
161, 13.58, 11.49, 18.62, 8.60, 0.000, 0.000, 0.000, 10:30:38.663, 7
162, 9.28, 7.76, 3.43, 13.42, 0.000, 0.000, 0.000, 10:30:38.664, 7
163, 14.49, 14.85, 20.63, 23.69, 0.000, 0.000, 0.000, 10:30:38.677, 7
164, 15.77, 16.74, 19.22, 20.09, 0.000, 0.000, 0.000, 10:30:38.678, 7
165, 15.20, 9.94, 17.74, 7.60, 0.000, 0.000, 0.000, 10:30:38.692, 7
166, 3.75, 7.67, 9.95, 9.76, 0.000, 0.000, 0.000, 10:30:38.692, 7
167, 13.76, 12.43, 17.55, 17.70, 0.000, 0.000, 0.000, 10:30:38.692, 7
168, 18.07, 20.20, 23.45, 25.31, 0.000, 0.000, 0.000, 10:30:38.693, 7
169, 14.00, 11.61, 10.57, 10.18, 0.000, 0.000, 0.000, 10:30:38.707, 7
170, 10.68, 8.52, 11.00, 13.58, 0.000, 0.000, 0.000, 10:30:38.707, 7
171, 13.91, 17.53, 20.00, 16.03, 0.000, 0.000, 0.000, 10:30:38.722, 7
172, 18.46, 15.57, 30.02, 20.63, 0.000, 0.000, 0.000, 10:30:38.722, 7
173, 13.14, 12.10, 17.54, 14.49, 0.000, 0.000, 0.000, 10:30:38.722, 7
174, 10.57, 6.27, 10.13, 6.86, 0.000, 0.000, 0.000, 10:30:38.723, 7
175, 15.80, 13.08, 23.34, 20.64, 0.000, 0.000, 0.000, 10:30:38.737, 7
176, 18.25, 18.28, 23.32, 24.15, 0.000, 0.000, 0.000, 10:30:38.737, 7
177, 12.61, 11.06, 10.09, 13.98, 0.000, 0.000, 0.000, 10:30:38.752, 7
178, 7.03, 8.02, 8.96, 9.45, 0.000, 0.000, 0.000, 10:30:38.752, 7
179, 15.50, 12.41, 18.76, 19.42, 0.000, 0.000, 0.000, 10:30:38.752, 7
180, 21.16, 17.23, 23.26, 20.06, 0.000, 0.000, 0.000, 10:30:38.753, 7
181, 9.47, 9.24, 13.03, 9.25, 0.000, 0.000, 0.000, 10:30:38.767, 7
182, 9.83, 7.54, 4.49, 9.87, 0.000, 0.000, 0.000, 10:30:38.768, 7
183, 16.31, 16.87, 15.18, 16.36, 0.000, 0.000, 0.000, 10:30:38.782, 7
184, 17.99, 14.02, 21.56, 22.40, 0.000, 0.000, 0.000, 10:30:38.782, 7
185, 10.88, 10.41, 16.55, 16.20, 0.000, 0.000, 0.000, 10:30:38.783, 7
186, 6.45, 5.14, 16.00, 7.52, 0.000, 0.000, 0.000, 10:30:38.783, 7
187, 15.17, 15.38, 16.29, 21.04, 0.000, 0.000, 0.000, 10:30:38.797, 7
188, 10.17, 16.49, 22.57, 22.92, 0.000, 0.000, 0.000, 10:30:38.797, 7
189, 12.63, 5.74, 9.77, 14.72, 0.000, 0.000, 0.000, 10:30:38.811, 7
190, 11.89, 6.03, 9.94, 6.35, 0.000, 0.000, 0.000, 10:30:38.812, 7
191, 14.31, 14.43, 14.79, 17.28, 0.000, 0.000, 0.000, 10:30:38.813, 7
192, 20.62, 18.79, 20.93, 17.93, 0.000, 0.000, 0.000, 10:30:38.813, 7
193, 10.86, 9.56, 15.75, 14.82, 0.000, 0.000, 0.000, 10:30:38.827, 7
194, 8.14, 7.10, 10.08, 12.57, 0.000, 0.000, 0.000, 10:30:38.828, 7
195, 13.98, 12.52, 22.50, 23.01, 0.000, 0.000, 0.000, 10:30:38.842, 7
196, 19.04, 17.88, 22.17, 20.77, 0.000, 0.000, 0.000, 10:30:38.843, 7
197, 12.16, 12.59, 8.67, 18.02, 0.000, 0.000, 0.000, 10:30:38.843, 7
198, 14.79, 8.56, 18.56, 13.89, 0.000, 0.000, 0.000, 10:30:38.844, 7
199, 21.87, 16.68, 19.08, 18.89, 0.000, 0.000, 0.000, 10:30:38.857, 7
200, 20.52, 20.53, 19.13, 20.92, 0.000, 0.000, 0.000, 10:30:38.858, 7
0, 12.65, 7.88, 16.11, 7.81, 0.000, 0.000, 0.000, 10:30:38.858, 7
1, 9.94, 10.73, 11.48, 10.14, 0.000, 0.000, 0.000, 10:30:38.873, 7
2, 18.77, 16.96, 15.53, 20.24, 0.000, 0.000, 0.000, 10:30:38.873, 7
3, 13.33, 18.75, 25.54, 20.61, 0.000, 0.000, 0.000, 10:30:38.888, 7
4, 8.11, 10.09, 17.18, 11.20, 0.000, 0.000, 0.000, 10:30:38.888, 7
5, 1.91, 4.24, 8.51, 8.91, 0.000, 0.000, 0.000, 10:30:38.889, 7
6, 9.92, 15.22, 18.13, 20.36, 0.000, 0.000, 0.000, 10:30:38.889, 7
7, 23.95, 20.35, 19.47, 22.96, 0.000, 0.000, 0.000, 10:30:38.903, 7
8, 8.17, 5.66, 10.66, 11.22, 0.000, 0.000, 0.000, 10:30:38.903, 7
9, 8.80, 6.29, 5.55, 8.01, 0.000, 0.000, 0.000, 10:30:38.918, 7
10, 15.02, 16.25, 19.98, 14.54, 0.000, 0.000, 0.000, 10:30:38.918, 7
11, 20.29, 18.22, 22.27, 19.75, 0.000, 0.000, 0.000, 10:30:38.920, 7
12, 14.76, 7.79, 15.39, 12.05, 0.000, 0.000, 0.000, 10:30:38.920, 7
13, 6.30, 6.85, 10.48, 10.88, 0.000, 0.000, 0.000, 10:30:38.933, 7
14, 16.95, 14.95, 19.43, 18.17, 0.000, 0.000, 0.000, 10:30:38.933, 7
15, 20.50, 21.17, 21.93, 19.51, 0.000, 0.000, 0.000, 10:30:38.949, 7
16, 12.31, 8.71, 10.85, 8.39, 0.000, 0.000, 0.000, 10:30:38.949, 7
17, 11.48, 5.25, 12.03, 8.41, 0.000, 0.000, 0.000, 10:30:38.950, 7
18, 16.56, 12.34, 21.73, 20.88, 0.000, 0.000, 0.000, 10:30:38.951, 7
19, 19.26, 13.36, 22.78, 23.15, 0.000, 0.000, 0.000, 10:30:38.963, 7
20, 8.01, 10.54, 16.91, 9.56, 0.000, 0.000, 0.000, 10:30:38.963, 7
21, 9.79, 9.07, 17.99, 11.32, 0.000, 0.000, 0.000, 10:30:38.978, 7
22, 16.93, 19.87, 24.89, 18.61, 0.000, 0.000, 0.000, 10:30:38.978, 7
23, 15.04, 22.60, 22.30, 24.78, 0.000, 0.000, 0.000, 10:30:38.994, 7
24, 16.53, 7.99, 7.75, 11.00, 0.000, 0.000, 0.000, 10:30:38.995, 7
25, 8.64, 10.84, 7.92, 14.72, 0.000, 0.000, 0.000, 10:30:38.995, 7
26, 14.65, 15.65, 21.62, 18.57, 0.000, 0.000, 0.000, 10:30:38.996, 7
27, 19.80, 21.50, 28.45, 20.71, 0.000, 0.000, 0.000, 10:30:39.008, 7
28, 9.36, 11.12, 10.55, 13.18, 0.000, 0.000, 0.000, 10:30:39.008, 7
29, 9.48, 4.92, 12.18, 8.31, 0.000, 0.000, 0.000, 10:30:39.019, 7
30, 20.28, 17.97, 12.61, 20.71, 0.000, 0.000, 0.000, 10:30:39.020, 7
31, 16.94, 16.81, 22.50, 18.06, 0.000, 0.000, 0.000, 10:30:39.023, 7
32, 12.60, 8.69, 11.29, 9.98, 0.000, 0.000, 0.000, 10:30:39.024, 7
33, 7.92, 11.94, 10.16, 11.14, 0.000, 0.000, 0.000, 10:30:39.037, 7
34, 16.56, 13.84, 13.55, 20.20, 0.000, 0.000, 0.000, 10:30:39.038, 7
35, 16.50, 17.15, 16.20, 17.64, 0.000, 0.000, 0.000, 10:30:39.041, 7
36, 18.70, 9.02, 18.43, 11.77, 0.000, 0.000, 0.000, 10:30:39.041, 7
37, 3.12, 6.86, 14.34, 12.24, 0.000, 0.000, 0.000, 10:30:39.052, 7
38, 18.97, 15.32, 20.05, 18.91, 0.000, 0.000, 0.000, 10:30:39.053, 7
39, 18.75, 17.71, 27.66, 16.42, 0.000, 0.000, 0.000, 10:30:39.067, 7
40, 9.43, 7.57, 16.66, 10.21, 0.000, 0.000, 0.000, 10:30:39.067, 7
41, 7.97, 9.60, 16.77, 10.45, 0.000, 0.000, 0.000, 10:30:39.074, 7
42, 15.76, 13.84, 14.94, 17.00, 0.000, 0.000, 0.000, 10:30:39.074, 7
43, 13.68, 14.32, 18.85, 19.09, 0.000, 0.000, 0.000, 10:30:39.082, 7
44, 15.75, 7.35, 11.21, 15.60, 0.000, 0.000, 0.000, 10:30:39.082, 7
45, 12.46, 7.45, 10.46, 8.14, 0.000, 0.000, 0.000, 10:30:39.097, 7
46, 17.13, 14.31, 22.74, 18.97, 0.000, 0.000, 0.000, 10:30:39.097, 7
47, 17.41, 21.38, 21.70, 19.45, 0.000, 0.000, 0.000, 10:30:39.098, 7
48, 12.32, 11.97, 18.65, 16.05, 0.000, 0.000, 0.000, 10:30:39.098, 7
49, 13.95, 7.66, 11.05, 11.31, 0.000, 0.000, 0.000, 10:30:39.111, 7
50, 12.28, 13.90, 12.39, 17.81, 0.000, 0.000, 0.000, 10:30:39.112, 7
51, 23.42, 20.56, 22.79, 21.70, 0.000, 0.000, 0.000, 10:30:39.127, 7
52, 12.93, 10.91, 9.12, 12.98, 0.000, 0.000, 0.000, 10:30:39.127, 7
53, 5.88, 6.89, 6.50, 9.72, 0.000, 0.000, 0.000, 10:30:39.128, 7
54, 16.70, 13.52, 14.68, 18.52, 0.000, 0.000, 0.000, 10:30:39.128, 7
55, 15.45, 17.84, 25.03, 22.74, 0.000, 0.000, 0.000, 10:30:39.142, 7
56, 9.51, 8.18, 16.07, 14.17, 0.000, 0.000, 0.000, 10:30:39.142, 7
57, 3.50, 5.41, 7.58, 7.85, 0.000, 0.000, 0.000, 10:30:39.157, 7
58, 11.85, 15.63, 14.38, 21.00, 0.000, 0.000, 0.000, 10:30:39.157, 7
59, 21.44, 16.64, 18.53, 20.69, 0.000, 0.000, 0.000, 10:30:39.157, 7
60, 8.21, 10.50, 13.34, 15.06, 0.000, 0.000, 0.000, 10:30:39.158, 7
61, 11.10, 8.96, 14.03, 10.70, 0.000, 0.000, 0.000, 10:30:39.172, 7
62, 17.85, 13.75, 15.34, 20.28, 0.000, 0.000, 0.000, 10:30:39.172, 7
63, 15.31, 19.89, 22.48, 18.13, 0.000, 0.000, 0.000, 10:30:39.186, 7
64, 11.53, 10.94, 15.42, 13.24, 0.000, 0.000, 0.000, 10:30:39.187, 7
65, 6.28, 3.05, 13.56, 7.75, 0.000, 0.000, 0.000, 10:30:39.187, 7
66, 17.50, 14.65, 17.49, 20.11, 0.000, 0.000, 0.000, 10:30:39.187, 7
67, 14.49, 19.27, 25.90, 19.54, 0.000, 0.000, 0.000, 10:30:39.203, 7
68, 9.73, 9.91, 23.97, 12.87, 0.000, 0.000, 0.000, 10:30:39.203, 7
69, 14.94, 10.58, 18.22, 13.63, 0.000, 0.000, 0.000, 10:30:39.218, 7
70, 21.67, 15.91, 18.57, 19.05, 0.000, 0.000, 0.000, 10:30:39.219, 7
71, 14.40, 20.23, 22.42, 29.92, 0.000, 0.000, 0.000, 10:30:39.219, 7
72, 13.66, 7.35, 13.53, 15.45, 0.000, 0.000, 0.000, 10:30:39.219, 7
73, 11.40, 9.85, 12.99, 9.18, 0.000, 0.000, 0.000, 10:30:39.237, 7
74, 14.57, 15.57, 21.98, 20.11, 0.000, 0.000, 0.000, 10:30:39.238, 7
75, 18.78, 15.26, 16.84, 18.69, 0.000, 0.000, 0.000, 10:30:39.251, 7
76, 8.98, 11.65, 14.71, 14.20, 0.000, 0.000, 0.000, 10:30:39.251, 7
77, 17.45, 9.12, 11.20, 10.88, 0.000, 0.000, 0.000, 10:30:39.252, 7
78, 19.72, 15.19, 12.82, 23.24, 0.000, 0.000, 0.000, 10:30:39.252, 7
79, 23.20, 16.75, 19.51, 20.26, 0.000, 0.000, 0.000, 10:30:39.264, 7
80, 5.15, 7.98, 17.65, 12.34, 0.000, 0.000, 0.000, 10:30:39.264, 7
81, 10.99, 8.18, 12.76, 8.05, 0.000, 0.000, 0.000, 10:30:39.277, 7
82, 12.03, 17.43, 11.96, 19.41, 0.000, 0.000, 0.000, 10:30:39.278, 7
83, 18.63, 13.89, 18.25, 20.22, 0.000, 0.000, 0.000, 10:30:39.278, 7
84, 8.73, 13.11, 17.67, 12.63, 0.000, 0.000, 0.000, 10:30:39.278, 7
85, 6.78, 7.51, 8.65, 6.88, 0.000, 0.000, 0.000, 10:30:39.292, 7
86, 14.74, 15.00, 17.00, 17.30, 0.000, 0.000, 0.000, 10:30:39.292, 7
87, 17.36, 16.01, 16.55, 21.13, 0.000, 0.000, 0.000, 10:30:39.307, 7
88, 14.10, 9.60, 16.36, 14.61, 0.000, 0.000, 0.000, 10:30:39.308, 7
89, 6.61, 8.87, 13.20, 11.18, 0.000, 0.000, 0.000, 10:30:39.308, 7
90, 19.37, 13.32, 19.85, 11.43, 0.000, 0.000, 0.000, 10:30:39.308, 7
91, 16.88, 22.70, 24.13, 19.90, 0.000, 0.000, 0.000, 10:30:39.322, 7
92, 11.37, 12.39, 17.19, 9.68, 0.000, 0.000, 0.000, 10:30:39.322, 7
93, 8.83, 6.10, 8.88, 8.72, 0.000, 0.000, 0.000, 10:30:39.337, 7
94, 16.52, 15.08, 16.73, 18.18, 0.000, 0.000, 0.000, 10:30:39.338, 7
95, 23.04, 19.69, 19.28, 20.87, 0.000, 0.000, 0.000, 10:30:39.339, 7
96, 12.38, 9.02, 18.29, 13.34, 0.000, 0.000, 0.000, 10:30:39.339, 7
97, 11.35, 4.31, 8.57, 11.37, 0.000, 0.000, 0.000, 10:30:39.353, 7
98, 22.58, 17.08, 22.53, 19.70, 0.000, 0.000, 0.000, 10:30:39.353, 7
99, 16.56, 19.24, 17.76, 20.99, 0.000, 0.000, 0.000, 10:30:39.367, 7
100, 8.30, 7.30, 18.63, 14.94, 0.000, 0.000, 0.000, 10:30:39.368, 7
101, 8.15, 7.95, 9.11, 10.08, 0.000, 0.000, 0.000, 10:30:39.370, 7
102, 12.51, 17.60, 17.89, 18.27, 0.000, 0.000, 0.000, 10:30:39.370, 7
103, 22.78, 18.53, 18.26, 17.28, 0.000, 0.000, 0.000, 10:30:39.382, 7
104, 11.03, 7.47, 15.37, 7.73, 0.000, 0.000, 0.000, 10:30:39.383, 7
105, 13.65, 10.36, 11.86, 9.43, 0.000, 0.000, 0.000, 10:30:39.398, 7
106, 24.99, 16.00, 13.33, 15.18, 0.000, 0.000, 0.000, 10:30:39.399, 7
107, 16.91, 22.09, 20.46, 19.20, 0.000, 0.000, 0.000, 10:30:39.399, 7
108, 12.19, 12.42, 10.44, 9.48, 0.000, 0.000, 0.000, 10:30:39.399, 7
109, 4.15, 8.22, 13.65, 10.96, 0.000, 0.000, 0.000, 10:30:39.412, 7
110, 16.56, 19.58, 21.20, 16.54, 0.000, 0.000, 0.000, 10:30:39.413, 7
111, 16.72, 16.55, 18.49, 20.20, 0.000, 0.000, 0.000, 10:30:39.427, 7
112, 11.37, 10.05, 13.59, 16.61, 0.000, 0.000, 0.000, 10:30:39.428, 7
113, 9.76, 6.46, 13.72, 11.60, 0.000, 0.000, 0.000, 10:30:39.429, 7
114, 15.10, 16.98, 25.16, 15.17, 0.000, 0.000, 0.000, 10:30:39.429, 7
115, 20.02, 12.98, 20.63, 22.93, 0.000, 0.000, 0.000, 10:30:39.442, 7
116, 12.24, 10.72, 17.95, 14.08, 0.000, 0.000, 0.000, 10:30:39.443, 7
117, 9.58, 10.02, 10.82, 9.57, 0.000, 0.000, 0.000, 10:30:39.457, 7
118, 18.45, 12.59, 20.68, 13.17, 0.000, 0.000, 0.000, 10:30:39.458, 7
119, 14.22, 18.19, 24.23, 19.15, 0.000, 0.000, 0.000, 10:30:39.459, 7
120, 7.72, 12.53, 10.34, 16.34, 0.000, 0.000, 0.000, 10:30:39.460, 7
121, 12.29, 7.55, 11.34, 12.65, 0.000, 0.000, 0.000, 10:30:39.473, 7
122, 17.13, 18.11, 23.08, 21.51, 0.000, 0.000, 0.000, 10:30:39.473, 7
123, 12.59, 15.21, 18.65, 15.49, 0.000, 0.000, 0.000, 10:30:39.488, 7
124, 9.40, 12.99, 12.76, 13.81, 0.000, 0.000, 0.000, 10:30:39.488, 7
125, 11.75, 8.90, 13.35, 10.85, 0.000, 0.000, 0.000, 10:30:39.489, 7
126, 14.59, 11.33, 14.17, 19.41, 0.000, 0.000, 0.000, 10:30:39.489, 7
127, 15.24, 15.87, 27.62, 20.54, 0.000, 0.000, 0.000, 10:30:39.501, 7
128, 10.41, 11.72, 14.66, 17.25, 0.000, 0.000, 0.000, 10:30:39.502, 7
129, 8.89, 5.71, 9.46, 10.30, 0.000, 0.000, 0.000, 10:30:39.517, 7
130, 14.20, 14.82, 21.16, 20.40, 0.000, 0.000, 0.000, 10:30:39.518, 7
131, 18.52, 17.76, 18.38, 19.99, 0.000, 0.000, 0.000, 10:30:39.519, 7
132, 14.52, 8.81, 12.93, 13.26, 0.000, 0.000, 0.000, 10:30:39.519, 7
133, 9.31, 9.26, 13.30, 12.59, 0.000, 0.000, 0.000, 10:30:39.532, 7
134, 17.11, 17.43, 23.81, 19.77, 0.000, 0.000, 0.000, 10:30:39.533, 7
135, 22.06, 18.45, 24.14, 21.32, 0.000, 0.000, 0.000, 10:30:39.547, 7
136, 13.17, 6.84, 8.01, 9.95, 0.000, 0.000, 0.000, 10:30:39.548, 7
137, 10.77, 9.74, 4.50, 10.40, 0.000, 0.000, 0.000, 10:30:39.554, 7
138, 20.73, 15.41, 20.11, 18.15, 0.000, 0.000, 0.000, 10:30:39.555, 7
139, 14.83, 18.18, 20.02, 17.69, 0.000, 0.000, 0.000, 10:30:39.562, 7
140, 7.98, 13.05, 16.95, 11.68, 0.000, 0.000, 0.000, 10:30:39.563, 7
141, 7.30, 7.20, 1.70, 7.76, 0.000, 0.000, 0.000, 10:30:39.577, 7
142, 16.98, 14.77, 14.19, 13.42, 0.000, 0.000, 0.000, 10:30:39.577, 7
143, 16.43, 15.99, 21.99, 17.92, 0.000, 0.000, 0.000, 10:30:39.578, 7
144, 11.68, 9.73, 12.34, 11.26, 0.000, 0.000, 0.000, 10:30:39.578, 7
145, 8.72, 7.44, 12.94, 10.38, 0.000, 0.000, 0.000, 10:30:39.592, 7
146, 17.35, 12.70, 14.94, 13.79, 0.000, 0.000, 0.000, 10:30:39.592, 7
147, 17.28, 16.12, 24.39, 18.31, 0.000, 0.000, 0.000, 10:30:39.607, 7
148, 13.42, 6.84, 17.73, 12.36, 0.000, 0.000, 0.000, 10:30:39.608, 7
149, 6.76, 9.15, 12.06, 5.36, 0.000, 0.000, 0.000, 10:30:39.608, 7
150, 16.51, 16.63, 22.49, 20.62, 0.000, 0.000, 0.000, 10:30:39.608, 7
151, 18.16, 18.83, 25.95, 22.86, 0.000, 0.000, 0.000, 10:30:39.622, 7
152, 16.68, 15.45, 13.98, 11.17, 0.000, 0.000, 0.000, 10:30:39.622, 7
153, 9.96, 6.35, 9.78, 11.71, 0.000, 0.000, 0.000, 10:30:39.637, 7
154, 13.33, 15.31, 17.93, 15.56, 0.000, 0.000, 0.000, 10:30:39.637, 7
155, 16.03, 18.61, 16.31, 22.29, 0.000, 0.000, 0.000, 10:30:39.637, 7
156, 8.37, 10.50, 13.35, 19.08, 0.000, 0.000, 0.000, 10:30:39.637, 7
157, 10.56, 6.31, 12.52, 11.37, 0.000, 0.000, 0.000, 10:30:39.652, 7
158, 11.95, 16.30, 16.80, 18.50, 0.000, 0.000, 0.000, 10:30:39.652, 7
159, 23.66, 16.40, 20.41, 21.36, 0.000, 0.000, 0.000, 10:30:39.670, 7
160, 9.25, 11.10, 16.67, 8.34, 0.000, 0.000, 0.000, 10:30:39.670, 7
161, 9.90, 8.10, 10.18, 10.82, 0.000, 0.000, 0.000, 10:30:39.670, 7
162, 15.02, 15.07, 21.68, 18.25, 0.000, 0.000, 0.000, 10:30:39.671, 7
163, 18.70, 13.91, 21.02, 22.07, 0.000, 0.000, 0.000, 10:30:39.685, 7
164, 16.89, 9.64, 14.69, 15.92, 0.000, 0.000, 0.000, 10:30:39.685, 7
165, 9.62, 5.46, 9.93, 6.10, 0.000, 0.000, 0.000, 10:30:39.697, 7
166, 17.08, 17.11, 20.57, 18.31, 0.000, 0.000, 0.000, 10:30:39.697, 7
167, 19.72, 20.87, 27.84, 23.36, 0.000, 0.000, 0.000, 10:30:39.697, 7
168, 8.62, 13.98, 11.01, 12.93, 0.000, 0.000, 0.000, 10:30:39.698, 7
169, 8.46, 4.54, 11.45, 8.73, 0.000, 0.000, 0.000, 10:30:39.711, 7
170, 12.84, 11.75, 19.71, 16.98, 0.000, 0.000, 0.000, 10:30:39.712, 7
171, 18.31, 15.91, 23.68, 21.86, 0.000, 0.000, 0.000, 10:30:39.726, 7
172, 9.99, 12.60, 12.91, 12.42, 0.000, 0.000, 0.000, 10:30:39.726, 7
173, 8.63, 4.56, 15.28, 11.94, 0.000, 0.000, 0.000, 10:30:39.726, 7
174, 18.62, 16.44, 19.18, 16.95, 0.000, 0.000, 0.000, 10:30:39.727, 7
175, 20.21, 18.05, 21.13, 22.36, 0.000, 0.000, 0.000, 10:30:39.741, 7
176, 9.41, 8.93, 7.00, 13.74, 0.000, 0.000, 0.000, 10:30:39.742, 7
177, 11.74, 7.08, 8.91, 10.67, 0.000, 0.000, 0.000, 10:30:39.756, 7
178, 15.88, 11.39, 15.87, 18.93, 0.000, 0.000, 0.000, 10:30:39.756, 7
179, 19.51, 21.96, 30.72, 25.27, 0.000, 0.000, 0.000, 10:30:39.757, 7
180, 11.48, 10.26, 15.23, 14.11, 0.000, 0.000, 0.000, 10:30:39.757, 7
181, 0.81, 5.94, 11.57, 11.05, 0.000, 0.000, 0.000, 10:30:39.771, 7
182, 14.21, 13.11, 20.57, 16.03, 0.000, 0.000, 0.000, 10:30:39.771, 7
183, 19.79, 19.82, 22.19, 20.92, 0.000, 0.000, 0.000, 10:30:39.786, 7
184, 13.33, 15.24, 12.25, 14.23, 0.000, 0.000, 0.000, 10:30:39.786, 7
185, 12.26, 7.58, 5.35, 8.53, 0.000, 0.000, 0.000, 10:30:39.786, 7
186, 14.42, 12.63, 21.38, 10.12, 0.000, 0.000, 0.000, 10:30:39.786, 7
187, 20.24, 18.93, 15.53, 18.45, 0.000, 0.000, 0.000, 10:30:39.802, 7
188, 11.39, 8.87, 17.51, 17.15, 0.000, 0.000, 0.000, 10:30:39.802, 7
189, 10.53, 6.02, 13.10, 13.52, 0.000, 0.000, 0.000, 10:30:39.817, 7
190, 15.78, 14.10, 24.96, 15.81, 0.000, 0.000, 0.000, 10:30:39.817, 7
191, 15.69, 16.56, 17.84, 22.04, 0.000, 0.000, 0.000, 10:30:39.817, 7
192, 13.33, 8.67, 14.64, 11.06, 0.000, 0.000, 0.000, 10:30:39.817, 7
193, 3.81, 9.03, 11.95, 11.17, 0.000, 0.000, 0.000, 10:30:39.838, 7
194, 16.25, 22.55, 19.49, 14.83, 0.000, 0.000, 0.000, 10:30:39.839, 7
195, 18.64, 17.37, 26.80, 15.98, 0.000, 0.000, 0.000, 10:30:39.847, 7
196, 14.56, 11.16, 15.01, 11.35, 0.000, 0.000, 0.000, 10:30:39.847, 7
197, 7.02, 5.10, 9.97, 12.99, 0.000, 0.000, 0.000, 10:30:39.848, 7
198, 14.37, 13.34, 17.34, 15.35, 0.000, 0.000, 0.000, 10:30:39.848, 7
199, 16.29, 18.56, 18.55, 18.03, 0.000, 0.000, 0.000, 10:30:39.861, 7
200, 13.36, 14.70, 11.25, 13.45, 0.000, 0.000, 0.000, 10:30:39.862, 7
0, 7.74, 8.92, 11.18, 12.24, 0.000, 0.000, 0.000, 10:30:39.863, 7
1, 18.53, 13.64, 20.53, 22.84, 0.000, 0.000, 0.000, 10:30:39.876, 7
2, 20.10, 18.07, 20.24, 18.91, 0.000, 0.000, 0.000, 10:30:39.877, 7
3, 11.11, 9.43, 18.80, 16.34, 0.000, 0.000, 0.000, 10:30:39.892, 7
4, 14.61, 9.52, 16.13, 8.03, 0.000, 0.000, 0.000, 10:30:39.892, 7
5, 12.84, 16.30, 20.21, 17.75, 0.000, 0.000, 0.000, 10:30:39.895, 7
6, 16.02, 12.99, 18.02, 19.48, 0.000, 0.000, 0.000, 10:30:39.896, 7
7, 12.87, 12.30, 19.43, 18.85, 0.000, 0.000, 0.000, 10:30:39.907, 7
8, 9.57, 7.13, 9.61, 14.68, 0.000, 0.000, 0.000, 10:30:39.907, 7
9, 19.69, 20.81, 18.53, 21.52, 0.000, 0.000, 0.000, 10:30:39.922, 7
10, 16.91, 17.66, 21.35, 24.59, 0.000, 0.000, 0.000, 10:30:39.922, 7
11, 13.22, 10.84, 7.12, 10.38, 0.000, 0.000, 0.000, 10:30:39.922, 7
12, 8.10, 6.98, 1.56, 11.57, 0.000, 0.000, 0.000, 10:30:39.922, 7
13, 16.00, 17.93, 17.40, 16.52, 0.000, 0.000, 0.000, 10:30:39.937, 7
14, 15.52, 14.20, 26.62, 17.46, 0.000, 0.000, 0.000, 10:30:39.937, 7
15, 11.24, 10.95, 19.99, 12.72, 0.000, 0.000, 0.000, 10:30:39.952, 7
16, 9.81, 10.69, 16.95, 8.51, 0.000, 0.000, 0.000, 10:30:39.952, 7
17, 17.24, 13.96, 19.45, 16.32, 0.000, 0.000, 0.000, 10:30:39.953, 7
18, 16.29, 13.60, 15.27, 19.97, 0.000, 0.000, 0.000, 10:30:39.953, 7
19, 12.01, 11.45, 10.62, 10.93, 0.000, 0.000, 0.000, 10:30:39.968, 7
20, 11.03, 6.08, 20.69, 8.17, 0.000, 0.000, 0.000, 10:30:39.968, 7
21, 13.89, 14.66, 22.48, 17.33, 0.000, 0.000, 0.000, 10:30:39.982, 7
22, 19.70, 18.95, 16.69, 18.47, 0.000, 0.000, 0.000, 10:30:39.983, 7
23, 15.22, 11.29, 15.62, 8.69, 0.000, 0.000, 0.000, 10:30:39.984, 7
24, 15.61, 10.63, 11.05, 9.32, 0.000, 0.000, 0.000, 10:30:39.984, 7
25, 12.45, 17.98, 21.22, 18.12, 0.000, 0.000, 0.000, 10:30:39.998, 7
26, 12.22, 15.50, 19.02, 19.83, 0.000, 0.000, 0.000, 10:30:39.998, 7
27, 14.31, 9.72, 12.02, 21.48, 0.000, 0.000, 0.000, 10:30:40.012, 7
28, 12.77, 7.68, 6.13, 15.69, 0.000, 0.000, 0.000, 10:30:40.012, 7
29, 14.72, 14.08, 18.82, 21.22, 0.000, 0.000, 0.000, 10:30:40.013, 7
30, 16.48, 11.98, 24.05, 20.59, 0.000, 0.000, 0.000, 10:30:40.014, 7
31, 12.29, 9.31, 15.09, 12.65, 0.000, 0.000, 0.000, 10:30:40.027, 7
32, 15.77, 9.49, 15.47, 14.01, 0.000, 0.000, 0.000, 10:30:40.028, 7
33, 15.44, 14.21, 14.62, 16.06, 0.000, 0.000, 0.000, 10:30:40.042, 7
34, 14.41, 14.17, 12.74, 15.93, 0.000, 0.000, 0.000, 10:30:40.043, 7
35, 14.80, 10.25, 15.20, 12.30, 0.000, 0.000, 0.000, 10:30:40.044, 7
36, 6.17, 8.13, 12.27, 13.50, 0.000, 0.000, 0.000, 10:30:40.044, 7
37, 14.01, 17.31, 26.50, 17.94, 0.000, 0.000, 0.000, 10:30:40.057, 7
38, 13.03, 16.59, 18.52, 17.43, 0.000, 0.000, 0.000, 10:30:40.057, 7
39, 13.81, 10.74, 12.91, 14.43, 0.000, 0.000, 0.000, 10:30:40.072, 7
40, 13.66, 11.20, 15.33, 16.83, 0.000, 0.000, 0.000, 10:30:40.072, 7
41, 13.31, 16.76, 21.04, 16.26, 0.000, 0.000, 0.000, 10:30:40.073, 7
42, 16.18, 15.95, 13.41, 19.85, 0.000, 0.000, 0.000, 10:30:40.073, 7
43, 13.61, 10.17, 16.23, 17.39, 0.000, 0.000, 0.000, 10:30:40.088, 7
44, 11.74, 9.58, 13.30, 12.90, 0.000, 0.000, 0.000, 10:30:40.088, 7
45, 15.00, 12.61, 20.38, 17.68, 0.000, 0.000, 0.000, 10:30:40.103, 7
46, 15.47, 14.26, 18.84, 13.68, 0.000, 0.000, 0.000, 10:30:40.104, 7
47, 13.88, 10.99, 5.89, 13.76, 0.000, 0.000, 0.000, 10:30:40.105, 7
48, 10.68, 8.95, 9.01, 14.94, 0.000, 0.000, 0.000, 10:30:40.105, 7
49, 12.75, 13.39, 18.49, 17.22, 0.000, 0.000, 0.000, 10:30:40.117, 7
50, 21.18, 17.96, 25.16, 22.93, 0.000, 0.000, 0.000, 10:30:40.119, 7
51, 10.22, 9.58, 16.48, 7.42, 0.000, 0.000, 0.000, 10:30:40.133, 7
52, 13.33, 13.54, 15.88, 12.46, 0.000, 0.000, 0.000, 10:30:40.134, 7
53, 17.86, 12.53, 17.40, 14.18, 0.000, 0.000, 0.000, 10:30:40.135, 7
54, 12.55, 17.69, 21.39, 17.82, 0.000, 0.000, 0.000, 10:30:40.135, 7
55, 14.48, 10.87, 16.78, 12.78, 0.000, 0.000, 0.000, 10:30:40.148, 7
56, 11.07, 4.40, 13.00, 10.32, 0.000, 0.000, 0.000, 10:30:40.149, 7
57, 12.71, 18.73, 22.23, 16.77, 0.000, 0.000, 0.000, 10:30:40.162, 7
58, 21.12, 15.67, 24.08, 18.09, 0.000, 0.000, 0.000, 10:30:40.163, 7
59, 15.70, 11.84, 15.65, 12.38, 0.000, 0.000, 0.000, 10:30:40.163, 7
60, 6.87, 8.36, 14.63, 11.60, 0.000, 0.000, 0.000, 10:30:40.164, 7
61, 13.62, 12.71, 19.54, 19.03, 0.000, 0.000, 0.000, 10:30:40.178, 7
62, 14.95, 18.94, 16.08, 26.35, 0.000, 0.000, 0.000, 10:30:40.179, 7
63, 10.08, 13.69, 15.63, 11.42, 0.000, 0.000, 0.000, 10:30:40.192, 7
64, 10.07, 5.48, 9.01, 12.78, 0.000, 0.000, 0.000, 10:30:40.193, 7
65, 13.61, 15.03, 20.85, 17.51, 0.000, 0.000, 0.000, 10:30:40.193, 7
66, 24.58, 21.21, 22.68, 24.07, 0.000, 0.000, 0.000, 10:30:40.194, 7
67, 18.04, 10.76, 14.73, 13.57, 0.000, 0.000, 0.000, 10:30:40.208, 7
68, 9.76, 7.19, 12.50, 10.37, 0.000, 0.000, 0.000, 10:30:40.208, 7
69, 11.15, 15.46, 22.16, 21.81, 0.000, 0.000, 0.000, 10:30:40.223, 7
70, 20.50, 17.57, 15.75, 19.73, 0.000, 0.000, 0.000, 10:30:40.223, 7
71, 9.84, 8.91, 10.67, 11.25, 0.000, 0.000, 0.000, 10:30:40.224, 7
72, 6.85, 3.19, 10.39, 11.10, 0.000, 0.000, 0.000, 10:30:40.224, 7
73, 18.73, 18.61, 18.52, 21.21, 0.000, 0.000, 0.000, 10:30:40.238, 7
74, 18.80, 18.38, 23.28, 28.37, 0.000, 0.000, 0.000, 10:30:40.238, 7
75, 9.13, 9.42, 14.75, 14.15, 0.000, 0.000, 0.000, 10:30:40.253, 7
76, 10.16, 6.49, 11.44, 8.70, 0.000, 0.000, 0.000, 10:30:40.253, 7
77, 16.60, 15.53, 18.17, 18.46, 0.000, 0.000, 0.000, 10:30:40.254, 7
78, 14.89, 12.47, 20.67, 22.25, 0.000, 0.000, 0.000, 10:30:40.254, 7
79, 8.59, 8.03, 10.29, 5.29, 0.000, 0.000, 0.000, 10:30:40.267, 7
80, 13.03, 7.70, 16.85, 6.80, 0.000, 0.000, 0.000, 10:30:40.267, 7
81, 14.53, 15.51, 20.16, 16.46, 0.000, 0.000, 0.000, 10:30:40.282, 7
82, 20.72, 21.67, 17.78, 21.44, 0.000, 0.000, 0.000, 10:30:40.282, 7
83, 5.26, 8.27, 14.13, 9.55, 0.000, 0.000, 0.000, 10:30:40.283, 7
84, 8.52, 7.38, 8.46, 7.64, 0.000, 0.000, 0.000, 10:30:40.285, 7
85, 18.10, 15.20, 20.62, 14.64, 0.000, 0.000, 0.000, 10:30:40.297, 7
86, 25.70, 23.00, 24.44, 19.40, 0.000, 0.000, 0.000, 10:30:40.298, 7
87, 11.03, 10.91, 12.39, 13.06, 0.000, 0.000, 0.000, 10:30:40.311, 7
88, 6.85, 8.66, 12.97, 8.04, 0.000, 0.000, 0.000, 10:30:40.313, 7
89, 13.19, 15.69, 22.64, 16.21, 0.000, 0.000, 0.000, 10:30:40.314, 7
90, 16.70, 15.86, 21.87, 19.90, 0.000, 0.000, 0.000, 10:30:40.314, 7
91, 20.74, 10.34, 13.79, 13.50, 0.000, 0.000, 0.000, 10:30:40.326, 7
92, 2.09, 9.13, 10.00, 9.03, 0.000, 0.000, 0.000, 10:30:40.327, 7
93, 20.38, 16.12, 17.73, 16.85, 0.000, 0.000, 0.000, 10:30:40.341, 7
94, 21.17, 18.86, 26.66, 22.52, 0.000, 0.000, 0.000, 10:30:40.342, 7
95, 7.82, 8.35, 12.00, 13.30, 0.000, 0.000, 0.000, 10:30:40.342, 7
96, 5.94, 5.98, 13.01, 14.41, 0.000, 0.000, 0.000, 10:30:40.342, 7
97, 17.01, 13.11, 11.48, 18.89, 0.000, 0.000, 0.000, 10:30:40.357, 7
98, 16.57, 18.95, 22.14, 18.55, 0.000, 0.000, 0.000, 10:30:40.357, 7
99, 11.00, 8.40, 13.59, 11.31, 0.000, 0.000, 0.000, 10:30:40.372, 7
100, 14.76, 4.27, 7.24, 11.29, 0.000, 0.000, 0.000, 10:30:40.372, 7
101, 13.42, 16.16, 18.28, 17.00, 0.000, 0.000, 0.000, 10:30:40.372, 7
102, 18.82, 18.10, 25.04, 21.60, 0.000, 0.000, 0.000, 10:30:40.373, 7
103, 4.67, 10.13, 12.55, 10.89, 0.000, 0.000, 0.000, 10:30:40.386, 7
104, 8.40, 6.15, 11.13, 5.36, 0.000, 0.000, 0.000, 10:30:40.386, 7
105, 14.94, 18.31, 23.85, 17.50, 0.000, 0.000, 0.000, 10:30:40.401, 7
106, 18.10, 18.91, 20.73, 22.03, 0.000, 0.000, 0.000, 10:30:40.402, 7
107, 14.30, 8.16, 17.33, 9.03, 0.000, 0.000, 0.000, 10:30:40.402, 7
108, 9.55, 8.42, 9.88, 9.95, 0.000, 0.000, 0.000, 10:30:40.402, 7
109, 13.98, 15.23, 12.05, 13.05, 0.000, 0.000, 0.000, 10:30:40.417, 7
110, 18.33, 21.72, 14.56, 19.39, 0.000, 0.000, 0.000, 10:30:40.418, 7
111, 12.45, 11.41, 15.25, 14.94, 0.000, 0.000, 0.000, 10:30:40.431, 7
112, 7.15, 5.84, 12.51, 9.36, 0.000, 0.000, 0.000, 10:30:40.431, 7
113, 9.32, 15.88, 22.85, 15.11, 0.000, 0.000, 0.000, 10:30:40.433, 7
114, 22.91, 20.03, 25.06, 23.46, 0.000, 0.000, 0.000, 10:30:40.433, 7
115, 14.08, 10.62, 16.28, 12.19, 0.000, 0.000, 0.000, 10:30:40.449, 7
116, 10.54, 9.29, 7.47, 12.24, 0.000, 0.000, 0.000, 10:30:40.449, 7
117, 14.90, 17.44, 22.65, 21.68, 0.000, 0.000, 0.000, 10:30:40.463, 7
118, 16.70, 14.68, 24.73, 25.34, 0.000, 0.000, 0.000, 10:30:40.463, 7
119, 17.22, 9.42, 19.07, 14.88, 0.000, 0.000, 0.000, 10:30:40.465, 7
120, 7.72, 4.55, 10.37, 14.39, 0.000, 0.000, 0.000, 10:30:40.465, 7
121, 18.89, 16.69, 15.86, 18.88, 0.000, 0.000, 0.000, 10:30:40.478, 7
122, 22.10, 21.13, 21.36, 24.98, 0.000, 0.000, 0.000, 10:30:40.479, 7
123, 9.03, 7.10, 7.34, 8.81, 0.000, 0.000, 0.000, 10:30:40.493, 7
124, 6.97, 6.00, 8.41, 7.20, 0.000, 0.000, 0.000, 10:30:40.493, 7
125, 14.40, 16.08, 27.19, 19.11, 0.000, 0.000, 0.000, 10:30:40.494, 7
126, 19.08, 22.68, 21.70, 20.16, 0.000, 0.000, 0.000, 10:30:40.494, 7
127, 13.24, 8.21, 13.10, 11.43, 0.000, 0.000, 0.000, 10:30:40.508, 7
128, 12.35, 6.42, 13.04, 11.71, 0.000, 0.000, 0.000, 10:30:40.508, 7
129, 11.25, 12.59, 15.76, 17.41, 0.000, 0.000, 0.000, 10:30:40.523, 7
130, 19.63, 17.21, 19.93, 23.95, 0.000, 0.000, 0.000, 10:30:40.523, 7
131, 13.68, 7.54, 15.13, 15.49, 0.000, 0.000, 0.000, 10:30:40.524, 7
132, 8.27, 6.05, 3.07, 5.44, 0.000, 0.000, 0.000, 10:30:40.525, 7
133, 14.43, 17.10, 21.50, 19.05, 0.000, 0.000, 0.000, 10:30:40.537, 7
134, 23.27, 18.43, 26.51, 20.03, 0.000, 0.000, 0.000, 10:30:40.538, 7
135, 9.79, 9.25, 19.01, 12.22, 0.000, 0.000, 0.000, 10:30:40.554, 7
136, 9.29, 8.55, 14.72, 13.27, 0.000, 0.000, 0.000, 10:30:40.555, 7
137, 24.53, 20.26, 15.77, 14.79, 0.000, 0.000, 0.000, 10:30:40.556, 7
138, 15.47, 20.75, 15.69, 19.87, 0.000, 0.000, 0.000, 10:30:40.556, 7
139, 14.50, 8.37, 11.83, 9.83, 0.000, 0.000, 0.000, 10:30:40.567, 7
140, 2.52, 5.85, 11.55, 11.38, 0.000, 0.000, 0.000, 10:30:40.568, 7
141, 15.70, 15.53, 20.48, 19.49, 0.000, 0.000, 0.000, 10:30:40.583, 7
142, 18.80, 20.53, 28.81, 19.74, 0.000, 0.000, 0.000, 10:30:40.584, 7
143, 12.64, 10.98, 16.12, 10.12, 0.000, 0.000, 0.000, 10:30:40.584, 7
144, 8.86, 5.52, 10.31, 9.51, 0.000, 0.000, 0.000, 10:30:40.585, 7
145, 19.54, 14.13, 25.24, 21.64, 0.000, 0.000, 0.000, 10:30:40.598, 7
146, 19.20, 19.16, 25.91, 20.20, 0.000, 0.000, 0.000, 10:30:40.599, 7
147, 7.03, 9.82, 7.87, 10.03, 0.000, 0.000, 0.000, 10:30:40.612, 7
148, 8.11, 5.24, 8.10, 11.07, 0.000, 0.000, 0.000, 10:30:40.614, 7
149, 15.39, 14.13, 27.40, 19.74, 0.000, 0.000, 0.000, 10:30:40.615, 7
150, 19.85, 16.69, 21.44, 19.00, 0.000, 0.000, 0.000, 10:30:40.615, 7
151, 9.75, 8.36, 18.05, 14.32, 0.000, 0.000, 0.000, 10:30:40.627, 7
152, 9.73, 6.70, 5.84, 10.22, 0.000, 0.000, 0.000, 10:30:40.627, 7
153, 17.33, 12.89, 15.57, 21.37, 0.000, 0.000, 0.000, 10:30:40.642, 7
154, 17.89, 15.74, 19.96, 17.52, 0.000, 0.000, 0.000, 10:30:40.642, 7
155, 8.48, 6.88, 9.98, 11.19, 0.000, 0.000, 0.000, 10:30:40.643, 7
156, 7.95, 9.28, 11.25, 6.83, 0.000, 0.000, 0.000, 10:30:40.643, 7
157, 13.79, 18.80, 20.92, 16.49, 0.000, 0.000, 0.000, 10:30:40.657, 7
158, 18.92, 15.35, 21.65, 20.71, 0.000, 0.000, 0.000, 10:30:40.657, 7
159, 15.88, 13.62, 18.28, 14.51, 0.000, 0.000, 0.000, 10:30:40.672, 7
160, 6.79, 5.58, 11.93, 8.75, 0.000, 0.000, 0.000, 10:30:40.672, 7
161, 10.73, 16.83, 19.30, 17.62, 0.000, 0.000, 0.000, 10:30:40.680, 7
162, 16.81, 19.67, 20.22, 21.17, 0.000, 0.000, 0.000, 10:30:40.680, 7
163, 15.11, 10.92, 15.10, 12.31, 0.000, 0.000, 0.000, 10:30:40.687, 7
164, 11.93, 5.03, 5.82, 5.79, 0.000, 0.000, 0.000, 10:30:40.687, 7
165, 16.35, 15.76, 26.80, 18.05, 0.000, 0.000, 0.000, 10:30:40.701, 7
166, 17.06, 20.73, 22.00, 23.16, 0.000, 0.000, 0.000, 10:30:40.701, 7
167, 6.14, 9.19, 14.08, 8.50, 0.000, 0.000, 0.000, 10:30:40.702, 7
168, 10.67, 2.75, 12.19, 7.86, 0.000, 0.000, 0.000, 10:30:40.702, 7
169, 15.66, 14.99, 17.31, 19.76, 0.000, 0.000, 0.000, 10:30:40.716, 7
170, 22.32, 20.16, 23.72, 22.05, 0.000, 0.000, 0.000, 10:30:40.717, 7
171, 10.31, 13.55, 12.88, 17.70, 0.000, 0.000, 0.000, 10:30:40.732, 7
172, 8.07, 3.71, 5.41, 9.75, 0.000, 0.000, 0.000, 10:30:40.732, 7
173, 15.83, 15.62, 18.30, 20.09, 0.000, 0.000, 0.000, 10:30:40.733, 7
174, 20.04, 20.00, 20.91, 21.79, 0.000, 0.000, 0.000, 10:30:40.734, 7
175, 13.93, 11.86, 9.17, 15.17, 0.000, 0.000, 0.000, 10:30:40.747, 7
176, 12.03, 6.23, 12.72, 8.98, 0.000, 0.000, 0.000, 10:30:40.747, 7
177, 20.42, 14.45, 24.10, 19.94, 0.000, 0.000, 0.000, 10:30:40.761, 7
178, 18.49, 20.63, 26.67, 20.07, 0.000, 0.000, 0.000, 10:30:40.762, 7
179, 8.05, 10.38, 17.42, 11.14, 0.000, 0.000, 0.000, 10:30:40.763, 7
180, 4.74, 5.44, 6.31, 5.77, 0.000, 0.000, 0.000, 10:30:40.763, 7
181, 15.20, 12.87, 18.39, 16.35, 0.000, 0.000, 0.000, 10:30:40.776, 7
182, 18.44, 21.12, 21.79, 23.42, 0.000, 0.000, 0.000, 10:30:40.776, 7
183, 10.58, 10.87, 14.54, 15.63, 0.000, 0.000, 0.000, 10:30:40.791, 7
184, 10.54, 6.88, 14.59, 7.97, 0.000, 0.000, 0.000, 10:30:40.791, 7
185, 11.62, 13.25, 21.87, 12.60, 0.000, 0.000, 0.000, 10:30:40.792, 7
186, 19.34, 19.91, 22.96, 21.67, 0.000, 0.000, 0.000, 10:30:40.792, 7
187, 11.50, 5.95, 7.08, 9.84, 0.000, 0.000, 0.000, 10:30:40.807, 7
188, 4.12, 7.78, 8.84, 7.92, 0.000, 0.000, 0.000, 10:30:40.807, 7
189, 16.78, 16.09, 16.58, 21.43, 0.000, 0.000, 0.000, 10:30:40.822, 7
190, 20.46, 19.92, 24.87, 23.05, 0.000, 0.000, 0.000, 10:30:40.822, 7
191, 11.09, 8.86, 11.04, 12.50, 0.000, 0.000, 0.000, 10:30:40.823, 7
192, 9.56, 4.67, 9.05, 7.68, 0.000, 0.000, 0.000, 10:30:40.823, 7
193, 19.08, 19.14, 20.09, 21.73, 0.000, 0.000, 0.000, 10:30:40.837, 7
194, 20.93, 20.22, 25.16, 26.24, 0.000, 0.000, 0.000, 10:30:40.837, 7
195, 16.76, 12.52, 8.88, 12.61, 0.000, 0.000, 0.000, 10:30:40.852, 7
196, 3.22, 2.34, 6.19, 9.98, 0.000, 0.000, 0.000, 10:30:40.853, 7
197, 17.61, 15.95, 24.73, 20.90, 0.000, 0.000, 0.000, 10:30:40.853, 7
198, 24.25, 17.96, 25.31, 19.08, 0.000, 0.000, 0.000, 10:30:40.853, 7
199, 4.35, 9.24, 12.66, 17.22, 0.000, 0.000, 0.000, 10:30:40.868, 7
200, 9.89, 6.29, 10.88, 14.36, 0.000, 0.000, 0.000, 10:30:40.868, 7
0, 16.88, 15.97, 16.49, 16.26, 0.000, 0.000, 0.000, 10:30:40.869, 7
1, 20.79, 17.01, 25.81, 21.26, 0.000, 0.000, 0.000, 10:30:40.882, 7
2, 7.58, 10.44, 13.01, 14.46, 0.000, 0.000, 0.000, 10:30:40.882, 7
3, 8.58, 8.01, 16.41, 12.76, 0.000, 0.000, 0.000, 10:30:40.897, 7
4, 13.14, 16.99, 18.30, 19.14, 0.000, 0.000, 0.000, 10:30:40.898, 7
5, 21.82, 17.74, 25.48, 21.80, 0.000, 0.000, 0.000, 10:30:40.912, 7
6, 9.58, 5.43, 12.38, 12.90, 0.000, 0.000, 0.000, 10:30:40.912, 7
7, 5.76, 4.57, 10.31, 11.79, 0.000, 0.000, 0.000, 10:30:40.913, 7
8, 13.36, 14.50, 22.10, 22.22, 0.000, 0.000, 0.000, 10:30:40.914, 7
9, 23.50, 21.16, 23.43, 25.17, 0.000, 0.000, 0.000, 10:30:40.927, 7
10, 13.22, 8.45, 10.89, 14.84, 0.000, 0.000, 0.000, 10:30:40.928, 7
11, 4.57, 7.23, 8.39, 10.10, 0.000, 0.000, 0.000, 10:30:40.928, 7
12, 21.07, 17.54, 17.63, 20.63, 0.000, 0.000, 0.000, 10:30:40.929, 7
13, 18.43, 21.65, 19.44, 17.31, 0.000, 0.000, 0.000, 10:30:40.942, 7
14, 10.52, 10.08, 8.66, 10.49, 0.000, 0.000, 0.000, 10:30:40.943, 7
15, 10.55, 6.31, 14.00, 7.73, 0.000, 0.000, 0.000, 10:30:40.957, 7
16, 15.45, 19.16, 21.68, 19.15, 0.000, 0.000, 0.000, 10:30:40.958, 7
17, 26.13, 19.72, 16.13, 16.60, 0.000, 0.000, 0.000, 10:30:40.958, 7
18, 10.80, 8.46, 2.26, 12.71, 0.000, 0.000, 0.000, 10:30:40.958, 7
19, 6.29, 7.25, 9.39, 7.22, 0.000, 0.000, 0.000, 10:30:40.972, 7
20, 13.44, 16.15, 13.23, 16.68, 0.000, 0.000, 0.000, 10:30:40.973, 7
21, 20.09, 18.96, 22.82, 19.66, 0.000, 0.000, 0.000, 10:30:40.988, 7
22, 11.57, 8.54, 13.97, 9.15, 0.000, 0.000, 0.000, 10:30:40.988, 7
23, 6.48, 7.16, 11.30, 5.39, 0.000, 0.000, 0.000, 10:30:40.989, 7
24, 21.01, 12.92, 20.51, 17.67, 0.000, 0.000, 0.000, 10:30:40.989, 7
25, 21.86, 17.66, 26.59, 18.60, 0.000, 0.000, 0.000, 10:30:41.002, 7
26, 10.45, 5.49, 18.15, 11.64, 0.000, 0.000, 0.000, 10:30:41.002, 7
27, 7.63, 6.35, 12.51, 9.64, 0.000, 0.000, 0.000, 10:30:41.017, 7
28, 14.99, 16.57, 27.40, 16.06, 0.000, 0.000, 0.000, 10:30:41.018, 7
29, 21.11, 18.39, 21.72, 26.38, 0.000, 0.000, 0.000, 10:30:41.019, 7
30, 11.15, 7.02, 11.90, 11.01, 0.000, 0.000, 0.000, 10:30:41.020, 7
31, 3.37, 7.37, 6.58, 8.56, 0.000, 0.000, 0.000, 10:30:41.039, 7
32, 18.06, 16.73, 18.33, 18.46, 0.000, 0.000, 0.000, 10:30:41.039, 7
33, 15.88, 16.68, 24.13, 20.96, 0.000, 0.000, 0.000, 10:30:41.048, 7
34, 15.80, 6.85, 13.40, 10.05, 0.000, 0.000, 0.000, 10:30:41.048, 7
35, 9.67, 5.40, 13.13, 10.07, 0.000, 0.000, 0.000, 10:30:41.050, 7
36, 11.47, 16.78, 26.96, 23.42, 0.000, 0.000, 0.000, 10:30:41.050, 7
37, 20.25, 20.05, 18.40, 19.09, 0.000, 0.000, 0.000, 10:30:41.062, 7
38, 3.96, 10.51, 10.42, 11.21, 0.000, 0.000, 0.000, 10:30:41.062, 7
39, 4.31, 5.24, 13.41, 8.03, 0.000, 0.000, 0.000, 10:30:41.077, 7
40, 21.31, 12.64, 15.67, 17.35, 0.000, 0.000, 0.000, 10:30:41.077, 7
41, 21.74, 16.59, 24.42, 21.27, 0.000, 0.000, 0.000, 10:30:41.078, 7
42, 12.90, 9.88, 15.10, 8.96, 0.000, 0.000, 0.000, 10:30:41.078, 7
43, 9.15, 10.29, 12.30, 13.82, 0.000, 0.000, 0.000, 10:30:41.092, 7
44, 20.05, 15.28, 26.73, 20.16, 0.000, 0.000, 0.000, 10:30:41.092, 7
45, 16.12, 15.37, 16.42, 19.48, 0.000, 0.000, 0.000, 10:30:41.107, 7
46, 10.66, 7.75, 11.01, 6.55, 0.000, 0.000, 0.000, 10:30:41.107, 7
47, 9.78, 5.25, 10.68, 9.57, 0.000, 0.000, 0.000, 10:30:41.107, 7
48, 15.75, 15.23, 23.14, 19.64, 0.000, 0.000, 0.000, 10:30:41.108, 7
49, 24.93, 20.68, 26.06, 24.16, 0.000, 0.000, 0.000, 10:30:41.122, 7
50, 13.08, 8.38, 13.42, 15.27, 0.000, 0.000, 0.000, 10:30:41.122, 7
51, 5.40, 8.26, 7.15, 13.31, 0.000, 0.000, 0.000, 10:30:41.137, 7
52, 13.09, 15.05, 16.69, 19.27, 0.000, 0.000, 0.000, 10:30:41.137, 7
53, 17.24, 16.82, 15.65, 22.69, 0.000, 0.000, 0.000, 10:30:41.138, 7
54, 11.57, 10.42, 12.37, 11.13, 0.000, 0.000, 0.000, 10:30:41.138, 7
55, 5.53, 7.38, 9.09, 15.25, 0.000, 0.000, 0.000, 10:30:41.153, 7
56, 16.12, 15.34, 16.26, 17.76, 0.000, 0.000, 0.000, 10:30:41.154, 7
57, 22.93, 21.75, 21.60, 22.28, 0.000, 0.000, 0.000, 10:30:41.167, 7
58, 7.01, 10.81, 4.07, 11.29, 0.000, 0.000, 0.000, 10:30:41.168, 7
59, 7.37, 6.36, 8.23, 6.85, 0.000, 0.000, 0.000, 10:30:41.170, 7
60, 15.41, 12.75, 29.18, 19.12, 0.000, 0.000, 0.000, 10:30:41.170, 7
61, 24.78, 21.45, 30.42, 22.71, 0.000, 0.000, 0.000, 10:30:41.183, 7
62, 13.38, 7.30, 15.95, 13.36, 0.000, 0.000, 0.000, 10:30:41.184, 7
63, 5.50, 9.55, 4.16, 8.77, 0.000, 0.000, 0.000, 10:30:41.198, 7
64, 13.59, 15.86, 18.97, 14.46, 0.000, 0.000, 0.000, 10:30:41.198, 7
65, 23.45, 12.19, 16.76, 20.32, 0.000, 0.000, 0.000, 10:30:41.199, 7
66, 3.69, 7.34, 14.03, 10.28, 0.000, 0.000, 0.000, 10:30:41.199, 7
67, 13.88, 10.35, 4.63, 9.63, 0.000, 0.000, 0.000, 10:30:41.212, 7
68, 17.15, 18.16, 25.00, 19.99, 0.000, 0.000, 0.000, 10:30:41.213, 7
69, 23.14, 19.51, 21.93, 24.32, 0.000, 0.000, 0.000, 10:30:41.228, 7
70, 11.05, 11.46, 12.52, 10.80, 0.000, 0.000, 0.000, 10:30:41.228, 7
71, 8.97, 7.46, 8.45, 13.19, 0.000, 0.000, 0.000, 10:30:41.229, 7
72, 12.40, 13.50, 18.21, 18.14, 0.000, 0.000, 0.000, 10:30:41.229, 7
73, 14.50, 18.69, 22.40, 24.08, 0.000, 0.000, 0.000, 10:30:41.242, 7
74, 9.57, 9.36, 18.11, 17.75, 0.000, 0.000, 0.000, 10:30:41.243, 7
75, 8.62, 6.60, 7.30, 11.15, 0.000, 0.000, 0.000, 10:30:41.258, 7
76, 17.67, 16.74, 20.69, 22.97, 0.000, 0.000, 0.000, 10:30:41.258, 7
77, 19.09, 19.97, 17.91, 23.28, 0.000, 0.000, 0.000, 10:30:41.259, 7
78, 13.27, 8.00, 12.87, 18.47, 0.000, 0.000, 0.000, 10:30:41.259, 7
79, 9.11, 10.44, 10.76, 12.13, 0.000, 0.000, 0.000, 10:30:41.272, 7
80, 14.81, 14.44, 21.10, 16.54, 0.000, 0.000, 0.000, 10:30:41.273, 7
81, 19.57, 18.99, 21.29, 23.57, 0.000, 0.000, 0.000, 10:30:41.288, 7
82, 11.11, 11.05, 12.35, 12.61, 0.000, 0.000, 0.000, 10:30:41.288, 7
83, 11.92, 10.29, 5.77, 7.28, 0.000, 0.000, 0.000, 10:30:41.289, 7
84, 21.59, 14.42, 25.81, 17.04, 0.000, 0.000, 0.000, 10:30:41.289, 7
85, 16.65, 17.64, 27.13, 26.76, 0.000, 0.000, 0.000, 10:30:41.309, 7
86, 9.37, 10.91, 11.16, 12.90, 0.000, 0.000, 0.000, 10:30:41.310, 7
87, 3.89, 8.84, 8.25, 6.66, 0.000, 0.000, 0.000, 10:30:41.317, 7
88, 23.81, 19.02, 15.61, 18.23, 0.000, 0.000, 0.000, 10:30:41.318, 7
89, 20.23, 17.04, 21.75, 22.44, 0.000, 0.000, 0.000, 10:30:41.320, 7
90, 7.99, 7.30, 18.60, 8.40, 0.000, 0.000, 0.000, 10:30:41.320, 7
91, 11.69, 3.22, 13.80, 13.87, 0.000, 0.000, 0.000, 10:30:41.332, 7
92, 17.56, 10.50, 19.64, 12.60, 0.000, 0.000, 0.000, 10:30:41.333, 7
93, 16.76, 14.50, 21.05, 21.50, 0.000, 0.000, 0.000, 10:30:41.348, 7
94, 15.27, 10.35, 18.55, 17.51, 0.000, 0.000, 0.000, 10:30:41.348, 7
95, 7.54, 2.71, 11.20, 12.62, 0.000, 0.000, 0.000, 10:30:41.350, 7
96, 13.74, 15.98, 19.03, 18.90, 0.000, 0.000, 0.000, 10:30:41.350, 7
97, 19.38, 19.66, 21.88, 23.77, 0.000, 0.000, 0.000, 10:30:41.362, 7
98, 5.28, 8.51, 12.32, 13.77, 0.000, 0.000, 0.000, 10:30:41.363, 7
99, 12.09, 8.60, 14.92, 7.76, 0.000, 0.000, 0.000, 10:30:41.378, 7
100, 17.79, 15.89, 13.76, 18.39, 0.000, 0.000, 0.000, 10:30:41.378, 7
101, 8.87, 19.28, 23.49, 22.67, 0.000, 0.000, 0.000, 10:30:41.379, 7
102, 7.81, 10.14, 11.55, 13.16, 0.000, 0.000, 0.000, 10:30:41.379, 7
103, 11.14, 8.33, 9.89, 9.21, 0.000, 0.000, 0.000, 10:30:41.392, 7
104, 16.09, 15.94, 22.11, 19.55, 0.000, 0.000, 0.000, 10:30:41.393, 7
105, 24.93, 16.48, 24.01, 23.41, 0.000, 0.000, 0.000, 10:30:41.407, 7
106, 10.69, 9.63, 9.67, 8.93, 0.000, 0.000, 0.000, 10:30:41.408, 7
107, 10.59, 9.11, 6.80, 3.75, 0.000, 0.000, 0.000, 10:30:41.409, 7
108, 16.98, 14.27, 15.77, 13.51, 0.000, 0.000, 0.000, 10:30:41.409, 7
109, 11.89, 13.31, 19.58, 16.92, 0.000, 0.000, 0.000, 10:30:41.422, 7
110, 11.03, 7.84, 18.01, 9.15, 0.000, 0.000, 0.000, 10:30:41.422, 7
111, 3.73, 9.31, 11.21, 7.42, 0.000, 0.000, 0.000, 10:30:41.437, 7
112, 13.28, 15.26, 20.47, 16.81, 0.000, 0.000, 0.000, 10:30:41.438, 7
113, 19.00, 18.84, 23.08, 21.89, 0.000, 0.000, 0.000, 10:30:41.438, 7
114, 15.26, 9.31, 18.09, 10.28, 0.000, 0.000, 0.000, 10:30:41.439, 7
115, 7.31, 6.10, 12.40, 5.69, 0.000, 0.000, 0.000, 10:30:41.452, 7
116, 14.73, 14.98, 22.03, 21.11, 0.000, 0.000, 0.000, 10:30:41.453, 7
117, 18.46, 15.28, 20.25, 19.07, 0.000, 0.000, 0.000, 10:30:41.467, 7
118, 15.53, 11.26, 8.27, 13.00, 0.000, 0.000, 0.000, 10:30:41.468, 7
119, 9.02, 9.88, 11.66, 9.97, 0.000, 0.000, 0.000, 10:30:41.469, 7
120, 19.01, 14.37, 21.44, 16.74, 0.000, 0.000, 0.000, 10:30:41.470, 7
121, 11.22, 14.29, 32.00, 17.77, 0.000, 0.000, 0.000, 10:30:41.482, 7
122, 12.50, 9.37, 15.66, 11.85, 0.000, 0.000, 0.000, 10:30:41.482, 7
123, 4.96, 8.83, 13.33, 6.60, 0.000, 0.000, 0.000, 10:30:41.498, 7
124, 14.42, 15.10, 16.48, 18.98, 0.000, 0.000, 0.000, 10:30:41.498, 7
125, 21.40, 16.38, 24.15, 21.68, 0.000, 0.000, 0.000, 10:30:41.499, 7
126, 14.06, 9.22, 13.35, 10.33, 0.000, 0.000, 0.000, 10:30:41.499, 7
127, 8.72, 7.76, 7.18, 9.28, 0.000, 0.000, 0.000, 10:30:41.511, 7
128, 18.30, 15.36, 20.42, 20.90, 0.000, 0.000, 0.000, 10:30:41.512, 7
129, 22.25, 20.75, 21.30, 21.14, 0.000, 0.000, 0.000, 10:30:41.528, 7
130, 14.48, 12.54, 15.38, 13.10, 0.000, 0.000, 0.000, 10:30:41.529, 7
131, 15.64, 8.85, 9.84, 9.89, 0.000, 0.000, 0.000, 10:30:41.530, 7
132, 9.82, 12.60, 20.91, 19.54, 0.000, 0.000, 0.000, 10:30:41.530, 7
133, 22.40, 18.57, 23.16, 20.85, 0.000, 0.000, 0.000, 10:30:41.543, 7
134, 15.87, 11.10, 15.33, 12.69, 0.000, 0.000, 0.000, 10:30:41.543, 7
135, 11.35, 8.15, 11.21, 13.39, 0.000, 0.000, 0.000, 10:30:41.558, 7
136, 17.27, 14.34, 19.37, 18.84, 0.000, 0.000, 0.000, 10:30:41.559, 7
137, 22.55, 17.14, 24.65, 20.19, 0.000, 0.000, 0.000, 10:30:41.560, 7
138, 8.53, 11.34, 3.85, 12.97, 0.000, 0.000, 0.000, 10:30:41.560, 7
139, 6.66, 7.38, 10.10, 10.68, 0.000, 0.000, 0.000, 10:30:41.573, 7
140, 15.41, 12.51, 24.84, 13.19, 0.000, 0.000, 0.000, 10:30:41.573, 7
141, 27.24, 17.25, 25.60, 21.50, 0.000, 0.000, 0.000, 10:30:41.597, 7
142, 6.22, 9.85, 11.06, 13.40, 0.000, 0.000, 0.000, 10:30:41.597, 7
143, 8.88, 9.87, 7.33, 12.94, 0.000, 0.000, 0.000, 10:30:41.599, 7
144, 17.47, 15.95, 14.62, 28.70, 0.000, 0.000, 0.000, 10:30:41.599, 7
145, 20.29, 18.04, 28.02, 23.17, 0.000, 0.000, 0.000, 10:30:41.602, 7
146, 7.53, 9.53, 20.14, 13.32, 0.000, 0.000, 0.000, 10:30:41.603, 7
147, 6.51, 6.75, 12.72, 14.98, 0.000, 0.000, 0.000, 10:30:41.617, 7
148, 13.16, 13.19, 17.90, 17.95, 0.000, 0.000, 0.000, 10:30:41.618, 7
149, 21.57, 20.52, 27.01, 24.27, 0.000, 0.000, 0.000, 10:30:41.618, 7
150, 9.23, 9.96, 8.54, 16.41, 0.000, 0.000, 0.000, 10:30:41.618, 7
151, 10.91, 7.71, 17.70, 11.06, 0.000, 0.000, 0.000, 10:30:41.635, 7
152, 16.92, 13.85, 15.78, 16.50, 0.000, 0.000, 0.000, 10:30:41.636, 7
153, 15.39, 16.64, 16.75, 19.48, 0.000, 0.000, 0.000, 10:30:41.648, 7
154, 10.78, 8.45, 12.32, 15.57, 0.000, 0.000, 0.000, 10:30:41.648, 7
155, 5.21, 5.74, 13.26, 7.89, 0.000, 0.000, 0.000, 10:30:41.649, 7
156, 15.44, 18.26, 16.11, 20.42, 0.000, 0.000, 0.000, 10:30:41.649, 7
157, 18.41, 19.98, 22.29, 21.73, 0.000, 0.000, 0.000, 10:30:41.662, 7
158, 7.66, 9.79, 10.43, 13.97, 0.000, 0.000, 0.000, 10:30:41.662, 7
159, 13.15, 6.00, 5.86, 11.52, 0.000, 0.000, 0.000, 10:30:41.677, 7
160, 13.93, 16.70, 17.77, 19.70, 0.000, 0.000, 0.000, 10:30:41.678, 7
161, 16.52, 17.03, 23.62, 22.79, 0.000, 0.000, 0.000, 10:30:41.678, 7
162, 14.59, 11.66, 17.44, 12.17, 0.000, 0.000, 0.000, 10:30:41.678, 7
163, 10.65, 7.89, 12.96, 10.65, 0.000, 0.000, 0.000, 10:30:41.692, 7
164, 14.09, 16.47, 21.00, 21.45, 0.000, 0.000, 0.000, 10:30:41.692, 7
165, 19.41, 18.87, 27.69, 22.14, 0.000, 0.000, 0.000, 10:30:41.707, 7
166, 11.14, 11.66, 17.61, 13.02, 0.000, 0.000, 0.000, 10:30:41.707, 7
167, 12.11, 6.43, 13.02, 12.79, 0.000, 0.000, 0.000, 10:30:41.708, 7
168, 16.26, 17.08, 16.03, 18.85, 0.000, 0.000, 0.000, 10:30:41.708, 7
169, 22.82, 21.53, 25.58, 21.47, 0.000, 0.000, 0.000, 10:30:41.722, 7
170, 4.35, 9.52, 14.02, 14.29, 0.000, 0.000, 0.000, 10:30:41.722, 7
171, 10.02, 9.07, 9.76, 10.64, 0.000, 0.000, 0.000, 10:30:41.737, 7
172, 17.90, 17.41, 15.49, 17.18, 0.000, 0.000, 0.000, 10:30:41.738, 7
173, 19.89, 18.16, 23.60, 19.54, 0.000, 0.000, 0.000, 10:30:41.738, 7
174, 8.13, 10.56, 15.76, 11.62, 0.000, 0.000, 0.000, 10:30:41.738, 7
175, 8.21, 7.96, 11.24, 3.93, 0.000, 0.000, 0.000, 10:30:41.752, 7
176, 19.32, 14.21, 21.54, 14.26, 0.000, 0.000, 0.000, 10:30:41.753, 7
177, 18.58, 19.74, 12.05, 18.88, 0.000, 0.000, 0.000, 10:30:41.768, 7
178, 12.25, 9.61, 11.71, 11.80, 0.000, 0.000, 0.000, 10:30:41.768, 7
179, 3.54, 8.36, 6.40, 5.73, 0.000, 0.000, 0.000, 10:30:41.769, 7
180, 20.55, 16.51, 13.93, 22.54, 0.000, 0.000, 0.000, 10:30:41.769, 7
181, 20.23, 15.75, 19.74, 19.21, 0.000, 0.000, 0.000, 10:30:41.782, 7
182, 10.23, 11.83, 11.23, 8.87, 0.000, 0.000, 0.000, 10:30:41.782, 7
183, 7.97, 8.03, 10.91, 7.27, 0.000, 0.000, 0.000, 10:30:41.797, 7
184, 20.29, 15.41, 25.32, 19.98, 0.000, 0.000, 0.000, 10:30:41.798, 7
185, 23.58, 18.85, 28.56, 21.29, 0.000, 0.000, 0.000, 10:30:41.803, 7
186, 10.79, 6.84, 14.91, 15.32, 0.000, 0.000, 0.000, 10:30:41.804, 7
187, 3.88, 7.37, 14.11, 10.21, 0.000, 0.000, 0.000, 10:30:41.811, 7
188, 20.53, 14.63, 18.53, 18.58, 0.000, 0.000, 0.000, 10:30:41.812, 7
189, 14.83, 17.09, 21.31, 25.33, 0.000, 0.000, 0.000, 10:30:41.826, 7
190, 9.15, 7.53, 11.02, 9.95, 0.000, 0.000, 0.000, 10:30:41.827, 7
191, 2.85, 5.13, 10.17, 14.83, 0.000, 0.000, 0.000, 10:30:41.827, 7
192, 18.74, 15.32, 15.77, 22.50, 0.000, 0.000, 0.000, 10:30:41.827, 7
193, 20.80, 17.01, 23.56, 23.71, 0.000, 0.000, 0.000, 10:30:41.842, 7
194, 12.04, 10.34, 15.17, 16.83, 0.000, 0.000, 0.000, 10:30:41.842, 7
195, 11.74, 5.38, 15.60, 11.57, 0.000, 0.000, 0.000, 10:30:41.857, 7
196, 14.08, 11.53, 21.24, 23.04, 0.000, 0.000, 0.000, 10:30:41.858, 7
197, 22.67, 18.02, 22.60, 24.57, 0.000, 0.000, 0.000, 10:30:41.858, 7
198, 16.26, 13.42, 12.88, 16.63, 0.000, 0.000, 0.000, 10:30:41.858, 7
199, 4.45, 6.56, 10.78, 7.80, 0.000, 0.000, 0.000, 10:30:41.872, 7
200, 18.04, 16.06, 15.52, 13.00, 0.000, 0.000, 0.000, 10:30:41.873, 7
0, 19.05, 16.49, 26.94, 21.01, 0.000, 0.000, 0.000, 10:30:41.873, 7
1, 11.59, 10.92, 17.17, 11.80, 0.000, 0.000, 0.000, 10:30:41.887, 7
2, 4.59, 4.47, 9.83, 7.46, 0.000, 0.000, 0.000, 10:30:41.887, 7
3, 17.37, 14.80, 22.65, 22.86, 0.000, 0.000, 0.000, 10:30:41.902, 7
4, 25.63, 18.61, 19.79, 16.71, 0.000, 0.000, 0.000, 10:30:41.902, 7
5, 12.22, 8.55, 18.03, 6.92, 0.000, 0.000, 0.000, 10:30:41.903, 7
6, 9.67, 4.54, 1.95, 8.41, 0.000, 0.000, 0.000, 10:30:41.903, 7
7, 14.76, 13.38, 15.04, 17.75, 0.000, 0.000, 0.000, 10:30:41.918, 7
8, 14.42, 21.35, 23.30, 23.81, 0.000, 0.000, 0.000, 10:30:41.919, 7
9, 7.71, 13.04, 12.18, 10.63, 0.000, 0.000, 0.000, 10:30:41.932, 7
10, 12.09, 5.97, 9.55, 9.33, 0.000, 0.000, 0.000, 10:30:41.932, 7
11, 20.36, 15.95, 17.09, 21.98, 0.000, 0.000, 0.000, 10:30:41.933, 7
12, 17.02, 17.44, 24.18, 21.78, 0.000, 0.000, 0.000, 10:30:41.933, 7
13, 13.05, 11.14, 9.37, 17.57, 0.000, 0.000, 0.000, 10:30:41.948, 7
14, 4.26, 3.47, 4.19, 10.27, 0.000, 0.000, 0.000, 10:30:41.949, 7
15, 16.01, 20.47, 13.55, 20.12, 0.000, 0.000, 0.000, 10:30:41.962, 7
16, 21.16, 25.19, 21.76, 25.96, 0.000, 0.000, 0.000, 10:30:41.963, 7
17, 13.76, 8.58, 17.53, 13.14, 0.000, 0.000, 0.000, 10:30:41.965, 7
18, 5.54, 2.20, 6.20, 11.81, 0.000, 0.000, 0.000, 10:30:41.965, 7
19, 13.09, 10.07, 20.23, 16.51, 0.000, 0.000, 0.000, 10:30:41.978, 7
20, 20.69, 17.05, 24.52, 23.81, 0.000, 0.000, 0.000, 10:30:41.978, 7
21, 9.51, 9.88, 20.37, 12.75, 0.000, 0.000, 0.000, 10:30:41.993, 7
22, 6.97, 7.69, 5.87, 10.28, 0.000, 0.000, 0.000, 10:30:41.993, 7
23, 16.35, 24.25, 17.82, 20.03, 0.000, 0.000, 0.000, 10:30:41.994, 7
24, 23.37, 21.98, 26.20, 22.78, 0.000, 0.000, 0.000, 10:30:41.994, 7
25, 10.50, 4.63, 15.37, 12.51, 0.000, 0.000, 0.000, 10:30:42.008, 7
26, 8.80, 6.23, 8.69, 7.87, 0.000, 0.000, 0.000, 10:30:42.008, 7
27, 16.42, 14.46, 22.81, 19.12, 0.000, 0.000, 0.000, 10:30:42.023, 7
28, 18.28, 18.72, 24.13, 20.82, 0.000, 0.000, 0.000, 10:30:42.023, 7
29, 10.82, 7.87, 15.82, 7.35, 0.000, 0.000, 0.000, 10:30:42.024, 7
30, 8.65, 4.02, 12.72, 2.93, 0.000, 0.000, 0.000, 10:30:42.024, 7
31, 16.64, 19.78, 20.42, 17.67, 0.000, 0.000, 0.000, 10:30:42.038, 7
32, 21.78, 22.27, 25.89, 21.36, 0.000, 0.000, 0.000, 10:30:42.038, 7
33, 8.18, 8.52, 8.56, 12.27, 0.000, 0.000, 0.000, 10:30:42.053, 7
34, 6.58, 4.47, -1.34, 5.89, 0.000, 0.000, 0.000, 10:30:42.054, 7
35, 13.30, 15.84, 21.69, 22.17, 0.000, 0.000, 0.000, 10:30:42.055, 7
36, 19.68, 22.90, 27.10, 25.55, 0.000, 0.000, 0.000, 10:30:42.055, 7
37, 8.23, 13.04, 13.01, 13.94, 0.000, 0.000, 0.000, 10:30:42.067, 7
38, 2.98, 2.02, 14.47, 13.06, 0.000, 0.000, 0.000, 10:30:42.067, 7
39, 20.73, 14.41, 19.46, 11.32, 0.000, 0.000, 0.000, 10:30:42.083, 7
40, 22.14, 18.57, 20.02, 19.20, 0.000, 0.000, 0.000, 10:30:42.083, 7
41, 12.90, 8.18, 18.59, 10.84, 0.000, 0.000, 0.000, 10:30:42.084, 7
42, 10.63, 4.36, 9.02, 5.53, 0.000, 0.000, 0.000, 10:30:42.085, 7
43, 16.25, 14.60, 15.93, 15.15, 0.000, 0.000, 0.000, 10:30:42.098, 7
44, 19.15, 18.27, 18.23, 21.30, 0.000, 0.000, 0.000, 10:30:42.098, 7
45, 11.27, 9.62, 15.30, 12.05, 0.000, 0.000, 0.000, 10:30:42.112, 7
46, 5.23, 6.22, 11.43, 7.75, 0.000, 0.000, 0.000, 10:30:42.113, 7
47, 13.40, 16.84, 19.70, 23.22, 0.000, 0.000, 0.000, 10:30:42.115, 7
48, 23.71, 19.31, 26.56, 20.43, 0.000, 0.000, 0.000, 10:30:42.115, 7
49, 7.52, 8.65, 14.36, 8.21, 0.000, 0.000, 0.000, 10:30:42.127, 7
50, 10.21, 4.31, 6.36, 12.23, 0.000, 0.000, 0.000, 10:30:42.128, 7
51, 19.35, 20.35, 19.40, 18.57, 0.000, 0.000, 0.000, 10:30:42.142, 7
52, 20.56, 20.21, 25.32, 17.84, 0.000, 0.000, 0.000, 10:30:42.143, 7
53, 7.41, 11.14, 21.40, 9.51, 0.000, 0.000, 0.000, 10:30:42.143, 7
54, 8.88, 7.96, 1.58, 6.14, 0.000, 0.000, 0.000, 10:30:42.143, 7
55, 14.83, 16.13, 16.34, 21.38, 0.000, 0.000, 0.000, 10:30:42.157, 7
56, 20.03, 19.48, 25.03, 22.61, 0.000, 0.000, 0.000, 10:30:42.157, 7
57, 8.76, 8.19, 12.45, 9.28, 0.000, 0.000, 0.000, 10:30:42.172, 7
58, 10.88, 5.60, 10.45, 5.27, 0.000, 0.000, 0.000, 10:30:42.173, 7
59, 13.18, 19.25, 27.27, 15.11, 0.000, 0.000, 0.000, 10:30:42.173, 7
60, 23.91, 23.61, 21.83, 25.30, 0.000, 0.000, 0.000, 10:30:42.173, 7
61, 14.90, 8.29, 14.63, 14.71, 0.000, 0.000, 0.000, 10:30:42.187, 7
62, 8.64, 6.00, 7.22, 7.38, 0.000, 0.000, 0.000, 10:30:42.188, 7
63, 17.02, 14.82, 23.57, 17.57, 0.000, 0.000, 0.000, 10:30:42.202, 7
64, 24.24, 18.33, 31.51, 23.25, 0.000, 0.000, 0.000, 10:30:42.203, 7
65, 14.26, 12.00, 11.01, 15.37, 0.000, 0.000, 0.000, 10:30:42.210, 7
66, 9.30, 6.62, 11.21, 11.29, 0.000, 0.000, 0.000, 10:30:42.210, 7
67, 13.87, 16.00, 18.15, 22.23, 0.000, 0.000, 0.000, 10:30:42.218, 7
68, 27.41, 17.05, 21.61, 23.28, 0.000, 0.000, 0.000, 10:30:42.218, 7
69, 5.94, 10.56, 23.70, 17.07, 0.000, 0.000, 0.000, 10:30:42.233, 7
70, 8.67, 4.39, 8.41, 11.25, 0.000, 0.000, 0.000, 10:30:42.234, 7
71, 17.05, 14.30, 12.32, 15.81, 0.000, 0.000, 0.000, 10:30:42.235, 7
72, 17.69, 17.81, 18.95, 19.94, 0.000, 0.000, 0.000, 10:30:42.235, 7
73, 9.41, 7.46, 15.34, 16.63, 0.000, 0.000, 0.000, 10:30:42.248, 7
74, 9.10, 4.86, 11.79, 11.16, 0.000, 0.000, 0.000, 10:30:42.249, 7
75, 11.74, 14.82, 13.31, 19.61, 0.000, 0.000, 0.000, 10:30:42.263, 7
76, 21.35, 18.09, 23.21, 25.66, 0.000, 0.000, 0.000, 10:30:42.263, 7
77, 8.04, 8.85, 9.42, 13.79, 0.000, 0.000, 0.000, 10:30:42.264, 7
78, 7.00, 7.46, 7.77, 8.15, 0.000, 0.000, 0.000, 10:30:42.264, 7
79, 14.77, 15.66, 15.80, 18.15, 0.000, 0.000, 0.000, 10:30:42.278, 7
80, 21.30, 19.74, 24.75, 25.04, 0.000, 0.000, 0.000, 10:30:42.278, 7
81, 9.23, 8.98, 15.19, 14.01, 0.000, 0.000, 0.000, 10:30:42.292, 7
82, 3.94, 4.98, 4.74, 8.67, 0.000, 0.000, 0.000, 10:30:42.293, 7
83, 17.12, 18.99, 20.42, 23.94, 0.000, 0.000, 0.000, 10:30:42.293, 7
84, 20.22, 20.38, 23.50, 27.11, 0.000, 0.000, 0.000, 10:30:42.294, 7
85, 12.61, 9.76, 8.59, 13.39, 0.000, 0.000, 0.000, 10:30:42.308, 7
86, 1.54, 6.21, 6.18, 11.32, 0.000, 0.000, 0.000, 10:30:42.308, 7
87, 13.80, 13.19, 17.29, 19.03, 0.000, 0.000, 0.000, 10:30:42.323, 7
88, 17.90, 21.28, 24.23, 22.63, 0.000, 0.000, 0.000, 10:30:42.323, 7
89, 12.21, 8.81, 15.28, 8.34, 0.000, 0.000, 0.000, 10:30:42.323, 7
90, 10.54, 3.30, 9.34, 5.28, 0.000, 0.000, 0.000, 10:30:42.324, 7
91, 17.06, 16.34, 17.74, 15.42, 0.000, 0.000, 0.000, 10:30:42.338, 7
92, 18.13, 17.81, 22.45, 22.05, 0.000, 0.000, 0.000, 10:30:42.338, 7
93, 15.78, 11.68, 11.75, 15.12, 0.000, 0.000, 0.000, 10:30:42.353, 7
94, 7.38, 6.57, 12.27, 6.96, 0.000, 0.000, 0.000, 10:30:42.354, 7
95, 17.58, 15.40, 16.82, 18.45, 0.000, 0.000, 0.000, 10:30:42.355, 7
96, 27.11, 21.25, 31.57, 21.12, 0.000, 0.000, 0.000, 10:30:42.355, 7
97, 13.42, 9.50, 19.66, 15.79, 0.000, 0.000, 0.000, 10:30:42.368, 7
98, 8.57, 3.37, 10.23, 13.62, 0.000, 0.000, 0.000, 10:30:42.368, 7
99, 20.03, 15.86, 23.14, 21.93, 0.000, 0.000, 0.000, 10:30:42.383, 7
100, 21.52, 20.33, 24.29, 21.40, 0.000, 0.000, 0.000, 10:30:42.384, 7
101, 11.32, 8.33, 15.42, 12.98, 0.000, 0.000, 0.000, 10:30:42.385, 7
102, 4.41, 2.44, 9.69, 6.78, 0.000, 0.000, 0.000, 10:30:42.386, 7
103, 14.83, 10.96, 20.74, 18.00, 0.000, 0.000, 0.000, 10:30:42.399, 7
104, 22.42, 19.84, 23.32, 21.38, 0.000, 0.000, 0.000, 10:30:42.399, 7
105, 7.07, 7.99, 13.90, 10.07, 0.000, 0.000, 0.000, 10:30:42.412, 7
106, 8.19, 9.19, 2.66, 8.86, 0.000, 0.000, 0.000, 10:30:42.413, 7
107, 11.30, 14.27, 22.54, 15.41, 0.000, 0.000, 0.000, 10:30:42.415, 7
108, 20.89, 19.02, 21.10, 16.92, 0.000, 0.000, 0.000, 10:30:42.415, 7
109, 10.93, 11.64, 18.10, 6.77, 0.000, 0.000, 0.000, 10:30:42.443, 7
110, 8.59, 7.54, 17.18, 10.51, 0.000, 0.000, 0.000, 10:30:42.443, 7
111, 18.51, 16.56, 19.23, 21.97, 0.000, 0.000, 0.000, 10:30:42.444, 7
112, 14.80, 17.94, 22.69, 25.39, 0.000, 0.000, 0.000, 10:30:42.445, 7
113, 10.40, 9.49, 10.25, 15.21, 0.000, 0.000, 0.000, 10:30:42.445, 7
114, 7.06, 8.51, 10.00, 9.85, 0.000, 0.000, 0.000, 10:30:42.445, 7
115, 12.54, 12.54, 17.67, 18.44, 0.000, 0.000, 0.000, 10:30:42.458, 7
116, 18.06, 19.80, 26.82, 23.75, 0.000, 0.000, 0.000, 10:30:42.458, 7
117, 18.53, 10.12, 7.73, 14.30, 0.000, 0.000, 0.000, 10:30:42.472, 7
118, 3.27, 4.80, 7.72, 10.62, 0.000, 0.000, 0.000, 10:30:42.473, 7
119, 16.73, 17.54, 20.48, 22.67, 0.000, 0.000, 0.000, 10:30:42.473, 7
120, 17.36, 19.32, 21.07, 19.11, 0.000, 0.000, 0.000, 10:30:42.474, 7
121, 10.21, 10.54, 15.72, 14.48, 0.000, 0.000, 0.000, 10:30:42.487, 7
122, 10.67, 3.58, 6.58, 5.02, 0.000, 0.000, 0.000, 10:30:42.488, 7
123, 17.06, 13.82, 19.70, 20.42, 0.000, 0.000, 0.000, 10:30:42.502, 7
124, 23.76, 21.01, 20.39, 25.02, 0.000, 0.000, 0.000, 10:30:42.503, 7
125, 10.78, 8.47, 14.40, 12.35, 0.000, 0.000, 0.000, 10:30:42.503, 7
126, 5.56, 1.74, 8.74, 5.25, 0.000, 0.000, 0.000, 10:30:42.504, 7
127, 19.82, 16.95, 20.27, 15.26, 0.000, 0.000, 0.000, 10:30:42.517, 7
128, 20.08, 20.87, 26.18, 22.40, 0.000, 0.000, 0.000, 10:30:42.518, 7
129, 9.33, 7.87, 19.70, 12.92, 0.000, 0.000, 0.000, 10:30:42.533, 7
130, 10.12, 8.91, 8.20, 9.48, 0.000, 0.000, 0.000, 10:30:42.533, 7
131, 16.62, 17.28, 17.18, 17.25, 0.000, 0.000, 0.000, 10:30:42.534, 7
132, 13.43, 24.23, 28.38, 24.55, 0.000, 0.000, 0.000, 10:30:42.534, 7
133, 9.62, 13.26, 17.36, 7.91, 0.000, 0.000, 0.000, 10:30:42.554, 7
134, 8.43, 1.02, 5.81, 4.93, 0.000, 0.000, 0.000, 10:30:42.554, 7
135, 16.30, 12.56, 14.91, 18.42, 0.000, 0.000, 0.000, 10:30:42.561, 7
136, 21.57, 14.59, 28.92, 18.68, 0.000, 0.000, 0.000, 10:30:42.562, 7
137, 13.19, 9.86, 10.51, 5.04, 0.000, 0.000, 0.000, 10:30:42.564, 7
138, -1.74, 2.09, 10.64, 3.44, 0.000, 0.000, 0.000, 10:30:42.564, 7
139, 20.64, 18.04, 20.47, 21.55, 0.000, 0.000, 0.000, 10:30:42.580, 7
140, 23.17, 24.29, 25.16, 30.03, 0.000, 0.000, 0.000, 10:30:42.581, 7
141, 15.87, 11.23, 13.74, 17.10, 0.000, 0.000, 0.000, 10:30:42.593, 7
142, 7.17, 3.19, 7.03, 11.50, 0.000, 0.000, 0.000, 10:30:42.594, 7
143, 18.68, 14.79, 19.45, 21.86, 0.000, 0.000, 0.000, 10:30:42.595, 7
144, 23.55, 21.24, 24.64, 24.75, 0.000, 0.000, 0.000, 10:30:42.595, 7
145, 8.78, 7.33, 6.86, 13.47, 0.000, 0.000, 0.000, 10:30:42.608, 7
146, 5.84, 4.34, 13.57, 8.33, 0.000, 0.000, 0.000, 10:30:42.608, 7
147, 18.19, 17.78, 20.09, 19.53, 0.000, 0.000, 0.000, 10:30:42.622, 7
148, 20.81, 19.05, 20.24, 29.02, 0.000, 0.000, 0.000, 10:30:42.622, 7
149, 8.44, 7.08, 11.78, 10.51, 0.000, 0.000, 0.000, 10:30:42.623, 7
150, 10.12, 2.15, 10.89, 7.15, 0.000, 0.000, 0.000, 10:30:42.623, 7
151, 20.76, 16.82, 18.60, 18.26, 0.000, 0.000, 0.000, 10:30:42.637, 7
152, 23.39, 22.77, 23.65, 25.60, 0.000, 0.000, 0.000, 10:30:42.637, 7
153, 5.42, 8.66, 14.31, 12.84, 0.000, 0.000, 0.000, 10:30:42.652, 7
154, 8.35, 7.42, 18.21, 11.64, 0.000, 0.000, 0.000, 10:30:42.653, 7
155, 14.57, 18.68, 24.88, 17.87, 0.000, 0.000, 0.000, 10:30:42.655, 7
156, 20.52, 25.43, 25.42, 20.25, 0.000, 0.000, 0.000, 10:30:42.655, 7
157, 15.79, 10.42, 11.71, 10.44, 0.000, 0.000, 0.000, 10:30:42.667, 7
158, -0.58, 5.83, 4.92, 5.91, 0.000, 0.000, 0.000, 10:30:42.667, 7
159, 16.84, 13.19, 20.70, 15.28, 0.000, 0.000, 0.000, 10:30:42.682, 7
160, 22.46, 17.55, 17.62, 22.96, 0.000, 0.000, 0.000, 10:30:42.682, 7
161, 7.83, 10.47, 17.79, 12.02, 0.000, 0.000, 0.000, 10:30:42.682, 7
162, 7.14, 9.42, 13.47, 7.74, 0.000, 0.000, 0.000, 10:30:42.683, 7
163, 18.88, 15.30, 19.73, 21.49, 0.000, 0.000, 0.000, 10:30:42.697, 7
164, 18.64, 20.41, 19.17, 22.14, 0.000, 0.000, 0.000, 10:30:42.697, 7
165, 8.57, 8.87, 7.02, 11.85, 0.000, 0.000, 0.000, 10:30:42.712, 7
166, 9.57, 3.70, 5.15, 8.47, 0.000, 0.000, 0.000, 10:30:42.713, 7
167, 16.45, 17.97, 22.72, 17.93, 0.000, 0.000, 0.000, 10:30:42.714, 7
168, 18.45, 17.49, 24.96, 23.89, 0.000, 0.000, 0.000, 10:30:42.715, 7
169, 10.38, 7.85, 12.63, 12.37, 0.000, 0.000, 0.000, 10:30:42.727, 7
170, 7.39, 5.04, 14.80, 7.41, 0.000, 0.000, 0.000, 10:30:42.727, 7
171, 19.77, 18.75, 20.19, 14.43, 0.000, 0.000, 0.000, 10:30:42.742, 7
172, 20.87, 21.37, 24.14, 24.22, 0.000, 0.000, 0.000, 10:30:42.742, 7
173, 9.09, 8.70, 6.93, 8.10, 0.000, 0.000, 0.000, 10:30:42.742, 7
174, 7.72, 5.78, 7.42, 4.31, 0.000, 0.000, 0.000, 10:30:42.742, 7
175, 15.84, 14.66, 21.26, 17.18, 0.000, 0.000, 0.000, 10:30:42.757, 7
176, 17.40, 17.12, 24.42, 21.42, 0.000, 0.000, 0.000, 10:30:42.757, 7
177, 11.48, 7.93, 13.90, 9.87, 0.000, 0.000, 0.000, 10:30:42.771, 7
178, 3.96, 4.44, 10.15, 4.56, 0.000, 0.000, 0.000, 10:30:42.771, 7
179, 18.02, 15.86, 18.30, 16.43, 0.000, 0.000, 0.000, 10:30:42.772, 7
180, 15.01, 21.13, 19.25, 23.11, 0.000, 0.000, 0.000, 10:30:42.772, 7
181, 15.20, 10.02, 9.17, 9.18, 0.000, 0.000, 0.000, 10:30:42.787, 7
182, 6.09, 6.01, 12.73, 6.95, 0.000, 0.000, 0.000, 10:30:42.787, 7
183, 15.19, 19.75, 19.50, 25.66, 0.000, 0.000, 0.000, 10:30:42.801, 7
184, 21.43, 23.08, 27.28, 23.97, 0.000, 0.000, 0.000, 10:30:42.801, 7
185, 9.16, 8.31, 9.00, 14.86, 0.000, 0.000, 0.000, 10:30:42.802, 7
186, 10.67, 6.33, 6.35, 9.38, 0.000, 0.000, 0.000, 10:30:42.802, 7
187, 19.80, 15.79, 23.90, 17.98, 0.000, 0.000, 0.000, 10:30:42.817, 7
188, 24.40, 19.54, 27.85, 22.84, 0.000, 0.000, 0.000, 10:30:42.817, 7
189, 9.00, 11.66, 17.97, 16.65, 0.000, 0.000, 0.000, 10:30:42.831, 7
190, 6.37, 4.46, 5.55, 6.63, 0.000, 0.000, 0.000, 10:30:42.831, 7
191, 15.60, 19.88, 14.47, 21.76, 0.000, 0.000, 0.000, 10:30:42.832, 7
192, 21.09, 18.92, 29.13, 24.81, 0.000, 0.000, 0.000, 10:30:42.832, 7
193, 11.64, 9.00, 9.96, 17.25, 0.000, 0.000, 0.000, 10:30:42.846, 7
194, 9.89, 4.78, 5.73, 10.76, 0.000, 0.000, 0.000, 10:30:42.847, 7
195, 16.46, 15.58, 18.22, 16.09, 0.000, 0.000, 0.000, 10:30:42.861, 7
196, 21.30, 16.27, 20.86, 23.18, 0.000, 0.000, 0.000, 10:30:42.861, 7
197, 10.47, 7.87, 9.93, 8.06, 0.000, 0.000, 0.000, 10:30:42.862, 7
198, 4.11, 5.82, 13.82, 7.76, 0.000, 0.000, 0.000, 10:30:42.863, 7
199, 12.43, 17.27, 24.02, 21.15, 0.000, 0.000, 0.000, 10:30:42.876, 7
200, 19.46, 17.64, 30.15, 21.80, 0.000, 0.000, 0.000, 10:30:42.877, 7
0, 14.20, 10.43, 9.58, 8.64, 0.000, 0.000, 0.000, 10:30:42.877, 7
1, 5.72, 4.21, 11.10, 2.82, 0.000, 0.000, 0.000, 10:30:42.891, 7
2, 16.62, 16.90, 15.42, 18.13, 0.000, 0.000, 0.000, 10:30:42.892, 7
3, 19.14, 18.45, 18.15, 22.21, 0.000, 0.000, 0.000, 10:30:42.907, 7
4, 12.72, 9.10, 5.68, 8.80, 0.000, 0.000, 0.000, 10:30:42.907, 7
5, 11.07, 5.69, 11.38, 6.37, 0.000, 0.000, 0.000, 10:30:42.908, 7
6, 15.49, 16.64, 19.77, 15.93, 0.000, 0.000, 0.000, 10:30:42.908, 7
7, 18.22, 19.25, 26.64, 21.27, 0.000, 0.000, 0.000, 10:30:42.922, 7
8, 10.74, 8.55, 4.82, 11.28, 0.000, 0.000, 0.000, 10:30:42.922, 7
9, 7.63, 5.54, 3.36, 7.23, 0.000, 0.000, 0.000, 10:30:42.937, 7
10, 19.15, 15.83, 22.67, 21.09, 0.000, 0.000, 0.000, 10:30:42.937, 7
11, 19.91, 18.47, 26.39, 23.43, 0.000, 0.000, 0.000, 10:30:42.938, 7
12, 8.74, 7.43, 21.03, 13.44, 0.000, 0.000, 0.000, 10:30:42.938, 7
13, 7.06, 2.60, 8.88, 6.10, 0.000, 0.000, 0.000, 10:30:42.952, 7
14, 13.51, 10.80, 23.40, 18.43, 0.000, 0.000, 0.000, 10:30:42.953, 7
15, 15.21, 18.48, 22.86, 20.70, 0.000, 0.000, 0.000, 10:30:42.968, 7
16, 12.55, 11.71, 16.22, 11.95, 0.000, 0.000, 0.000, 10:30:42.968, 7
17, 4.86, 2.99, 6.53, 11.03, 0.000, 0.000, 0.000, 10:30:42.970, 7
18, 21.99, 15.69, 15.54, 20.65, 0.000, 0.000, 0.000, 10:30:42.970, 7
19, 21.09, 21.42, 22.14, 27.73, 0.000, 0.000, 0.000, 10:30:42.983, 7
20, 10.52, 14.99, 15.28, 18.64, 0.000, 0.000, 0.000, 10:30:42.983, 7
21, 6.74, 8.29, 7.08, 12.17, 0.000, 0.000, 0.000, 10:30:42.999, 7
22, 13.00, 17.10, 15.03, 23.90, 0.000, 0.000, 0.000, 10:30:43.000, 7
23, 20.46, 25.29, 24.97, 23.36, 0.000, 0.000, 0.000, 10:30:43.001, 7
24, 12.62, 13.19, 12.31, 12.21, 0.000, 0.000, 0.000, 10:30:43.001, 7
25, 14.65, 6.43, 14.98, 8.81, 0.000, 0.000, 0.000, 10:30:43.012, 7
26, 15.98, 19.54, 21.69, 16.87, 0.000, 0.000, 0.000, 10:30:43.013, 7
27, 18.67, 24.58, 24.45, 23.43, 0.000, 0.000, 0.000, 10:30:43.027, 7
28, 14.59, 11.31, 16.24, 13.13, 0.000, 0.000, 0.000, 10:30:43.028, 7
29, 9.54, 5.33, 9.18, 9.64, 0.000, 0.000, 0.000, 10:30:43.028, 7
30, 15.56, 12.77, 16.94, 21.24, 0.000, 0.000, 0.000, 10:30:43.029, 7
31, 18.34, 18.04, 28.63, 22.07, 0.000, 0.000, 0.000, 10:30:43.057, 7
32, 11.35, 6.06, 10.02, 13.44, 0.000, 0.000, 0.000, 10:30:43.058, 7
33, 5.63, 0.43, 3.18, 5.18, 0.000, 0.000, 0.000, 10:30:43.058, 7
34, 18.38, 15.94, 23.17, 19.10, 0.000, 0.000, 0.000, 10:30:43.059, 7
35, 23.96, 19.24, 19.98, 23.91, 0.000, 0.000, 0.000, 10:30:43.059, 7
36, 9.29, 10.75, 17.09, 13.37, 0.000, 0.000, 0.000, 10:30:43.060, 7
37, 5.81, 2.76, 6.57, 8.84, 0.000, 0.000, 0.000, 10:30:43.072, 7
38, 18.49, 14.32, 15.54, 20.23, 0.000, 0.000, 0.000, 10:30:43.073, 7
39, 15.01, 16.73, 23.31, 21.26, 0.000, 0.000, 0.000, 10:30:43.088, 7
40, 14.85, 9.30, 15.56, 15.64, 0.000, 0.000, 0.000, 10:30:43.088, 7
41, 6.52, 8.34, 5.43, 6.66, 0.000, 0.000, 0.000, 10:30:43.089, 7
42, 14.82, 16.33, 19.90, 20.08, 0.000, 0.000, 0.000, 10:30:43.089, 7
43, 20.96, 17.72, 28.92, 25.61, 0.000, 0.000, 0.000, 10:30:43.102, 7
44, 9.77, 7.31, 19.73, 14.99, 0.000, 0.000, 0.000, 10:30:43.104, 7
45, 11.14, 6.86, 13.72, 11.61, 0.000, 0.000, 0.000, 10:30:43.117, 7
46, 15.02, 13.72, 17.32, 14.56, 0.000, 0.000, 0.000, 10:30:43.118, 7
47, 16.76, 19.02, 22.98, 21.66, 0.000, 0.000, 0.000, 10:30:43.120, 7
48, 11.57, 8.93, 18.99, 10.05, 0.000, 0.000, 0.000, 10:30:43.120, 7
49, 6.87, 9.88, 4.95, 6.70, 0.000, 0.000, 0.000, 10:30:43.133, 7
50, 14.10, 16.37, 15.97, 13.41, 0.000, 0.000, 0.000, 10:30:43.133, 7
51, 19.82, 19.30, 24.33, 21.71, 0.000, 0.000, 0.000, 10:30:43.148, 7
52, 8.91, 9.75, 7.19, 7.39, 0.000, 0.000, 0.000, 10:30:43.148, 7
53, 9.76, 6.39, 3.28, 9.06, 0.000, 0.000, 0.000, 10:30:43.149, 7
54, 19.57, 16.42, 22.33, 14.78, 0.000, 0.000, 0.000, 10:30:43.150, 7
55, 22.32, 22.79, 27.95, 21.44, 0.000, 0.000, 0.000, 10:30:43.162, 7
56, 14.61, 7.73, 17.51, 12.12, 0.000, 0.000, 0.000, 10:30:43.163, 7
57, 9.24, 4.79, 8.39, 4.27, 0.000, 0.000, 0.000, 10:30:43.177, 7
58, 17.02, 17.84, 15.05, 18.03, 0.000, 0.000, 0.000, 10:30:43.178, 7
59, 18.54, 20.63, 25.73, 22.60, 0.000, 0.000, 0.000, 10:30:43.181, 7
60, 10.32, 7.78, 17.57, 9.68, 0.000, 0.000, 0.000, 10:30:43.183, 7
61, 10.20, 8.02, 5.92, 11.15, 0.000, 0.000, 0.000, 10:30:43.193, 7
62, 14.25, 17.04, 23.73, 20.49, 0.000, 0.000, 0.000, 10:30:43.193, 7
63, 19.42, 18.52, 22.29, 25.35, 0.000, 0.000, 0.000, 10:30:43.207, 7
64, 14.61, 13.06, 13.07, 10.36, 0.000, 0.000, 0.000, 10:30:43.207, 7
65, 8.87, 6.05, 9.35, 9.72, 0.000, 0.000, 0.000, 10:30:43.208, 7
66, 13.79, 15.45, 17.54, 15.49, 0.000, 0.000, 0.000, 10:30:43.208, 7
67, 19.67, 19.72, 14.86, 25.80, 0.000, 0.000, 0.000, 10:30:43.222, 7
68, 13.45, 9.60, 17.92, 9.99, 0.000, 0.000, 0.000, 10:30:43.222, 7
69, -0.76, 5.41, 14.97, 5.75, 0.000, 0.000, 0.000, 10:30:43.237, 7
70, 21.41, 18.70, 25.35, 18.09, 0.000, 0.000, 0.000, 10:30:43.237, 7
71, 19.95, 18.94, 22.25, 22.41, 0.000, 0.000, 0.000, 10:30:43.238, 7
72, 11.48, 4.55, 12.01, 7.62, 0.000, 0.000, 0.000, 10:30:43.238, 7
73, 7.35, 2.89, 9.20, 1.99, 0.000, 0.000, 0.000, 10:30:43.252, 7
74, 15.51, 16.64, 17.93, 21.63, 0.000, 0.000, 0.000, 10:30:43.252, 7
75, 23.66, 22.16, 18.14, 25.51, 0.000, 0.000, 0.000, 10:30:43.267, 7
76, 8.99, 10.65, 7.78, 10.37, 0.000, 0.000, 0.000, 10:30:43.268, 7
77, 5.81, 4.49, 6.67, 7.72, 0.000, 0.000, 0.000, 10:30:43.269, 7
78, 15.13, 15.28, 15.97, 18.74, 0.000, 0.000, 0.000, 10:30:43.271, 7
79, 23.58, 18.92, 25.44, 27.54, 0.000, 0.000, 0.000, 10:30:43.282, 7
80, 12.43, 8.58, 19.39, 9.65, 0.000, 0.000, 0.000, 10:30:43.283, 7
81, 5.70, 2.48, 13.78, 8.81, 0.000, 0.000, 0.000, 10:30:43.299, 7
82, 16.23, 13.74, 24.04, 19.78, 0.000, 0.000, 0.000, 10:30:43.299, 7
83, 20.67, 18.16, 29.18, 24.78, 0.000, 0.000, 0.000, 10:30:43.300, 7
84, 14.42, 4.86, 12.77, 11.34, 0.000, 0.000, 0.000, 10:30:43.300, 7
85, 7.06, 4.02, 15.12, 5.62, 0.000, 0.000, 0.000, 10:30:43.313, 7
86, 16.20, 20.99, 19.93, 17.47, 0.000, 0.000, 0.000, 10:30:43.313, 7
87, 22.85, 24.79, 24.69, 24.58, 0.000, 0.000, 0.000, 10:30:43.328, 7
88, 7.98, 8.27, 10.51, 9.25, 0.000, 0.000, 0.000, 10:30:43.329, 7
89, 7.16, 4.12, 2.28, 8.15, 0.000, 0.000, 0.000, 10:30:43.330, 7
90, 11.34, 18.46, 14.87, 17.71, 0.000, 0.000, 0.000, 10:30:43.330, 7
91, 26.50, 16.80, 18.20, 23.59, 0.000, 0.000, 0.000, 10:30:43.343, 7
92, 11.95, 8.12, 10.56, 7.98, 0.000, 0.000, 0.000, 10:30:43.343, 7
93, 8.87, 9.11, 10.75, 7.92, 0.000, 0.000, 0.000, 10:30:43.358, 7
94, 15.70, 19.35, 22.78, 24.44, 0.000, 0.000, 0.000, 10:30:43.359, 7
95, 22.94, 21.60, 23.97, 24.91, 0.000, 0.000, 0.000, 10:30:43.359, 7
96, 12.84, 13.78, 18.08, 12.34, 0.000, 0.000, 0.000, 10:30:43.360, 7
97, 9.45, 7.98, 8.27, 10.88, 0.000, 0.000, 0.000, 10:30:43.379, 7
98, 15.88, 21.14, 21.66, 20.89, 0.000, 0.000, 0.000, 10:30:43.380, 7
99, 23.51, 19.55, 20.23, 31.54, 0.000, 0.000, 0.000, 10:30:43.387, 7
100, 9.98, 5.29, 11.80, 16.13, 0.000, 0.000, 0.000, 10:30:43.388, 7
101, 1.11, 1.50, 9.38, 12.90, 0.000, 0.000, 0.000, 10:30:43.388, 7
102, 23.45, 11.59, 20.39, 24.70, 0.000, 0.000, 0.000, 10:30:43.389, 7
103, 23.49, 22.07, 23.53, 23.69, 0.000, 0.000, 0.000, 10:30:43.403, 7
104, 11.63, 9.33, 17.92, 12.86, 0.000, 0.000, 0.000, 10:30:43.403, 7
105, 10.16, 8.09, 7.60, 10.68, 0.000, 0.000, 0.000, 10:30:43.418, 7
106, 20.37, 16.51, 22.70, 17.67, 0.000, 0.000, 0.000, 10:30:43.419, 7
107, 13.59, 20.18, 22.03, 26.26, 0.000, 0.000, 0.000, 10:30:43.420, 7
108, 10.77, 8.40, 12.07, 7.23, 0.000, 0.000, 0.000, 10:30:43.420, 7
109, 8.71, 6.06, 12.07, 6.26, 0.000, 0.000, 0.000, 10:30:43.432, 7
110, 15.25, 15.40, 18.10, 14.72, 0.000, 0.000, 0.000, 10:30:43.433, 7
111, 18.32, 16.79, 17.75, 20.10, 0.000, 0.000, 0.000, 10:30:43.448, 7
112, 9.25, 8.93, 11.79, 11.15, 0.000, 0.000, 0.000, 10:30:43.449, 7
113, 2.72, 5.15, 7.38, 6.18, 0.000, 0.000, 0.000, 10:30:43.450, 7
114, 17.64, 8.97, 19.24, 19.99, 0.000, 0.000, 0.000, 10:30:43.451, 7
115, 17.86, 18.25, 22.07, 23.62, 0.000, 0.000, 0.000, 10:30:43.463, 7
116, 10.42, 10.54, 18.75, 12.61, 0.000, 0.000, 0.000, 10:30:43.464, 7
117, 5.70, 6.46, 12.64, 8.45, 0.000, 0.000, 0.000, 10:30:43.477, 7
118, 23.41, 17.03, 18.71, 16.98, 0.000, 0.000, 0.000, 10:30:43.477, 7
119, 20.07, 20.17, 23.92, 26.33, 0.000, 0.000, 0.000, 10:30:43.478, 7
120, 8.05, 9.48, 18.03, 10.88, 0.000, 0.000, 0.000, 10:30:43.479, 7
121, 8.24, 8.01, 7.01, 8.32, 0.000, 0.000, 0.000, 10:30:43.492, 7
122, 15.28, 19.16, 29.04, 19.27, 0.000, 0.000, 0.000, 10:30:43.493, 7
123, 23.14, 18.97, 22.77, 25.40, 0.000, 0.000, 0.000, 10:30:43.507, 7
124, 12.37, 11.44, 9.53, 15.05, 0.000, 0.000, 0.000, 10:30:43.508, 7
125, 4.00, 3.31, 8.47, 9.55, 0.000, 0.000, 0.000, 10:30:43.508, 7
126, 14.74, 17.04, 22.05, 21.07, 0.000, 0.000, 0.000, 10:30:43.508, 7
127, 20.23, 21.80, 26.15, 20.48, 0.000, 0.000, 0.000, 10:30:43.522, 7
128, 16.19, 8.96, 17.46, 10.96, 0.000, 0.000, 0.000, 10:30:43.523, 7
129, 6.25, 5.32, 9.44, 11.92, 0.000, 0.000, 0.000, 10:30:43.537, 7
130, 19.86, 15.26, 19.77, 20.09, 0.000, 0.000, 0.000, 10:30:43.537, 7
131, 15.48, 18.50, 23.54, 26.25, 0.000, 0.000, 0.000, 10:30:43.538, 7
132, 11.10, 10.42, 18.86, 12.43, 0.000, 0.000, 0.000, 10:30:43.539, 7
133, 3.73, 2.01, 2.26, 6.52, 0.000, 0.000, 0.000, 10:30:43.552, 7
134, 9.14, 13.15, 19.11, 16.47, 0.000, 0.000, 0.000, 10:30:43.553, 7
135, 18.23, 16.46, 15.98, 23.51, 0.000, 0.000, 0.000, 10:30:43.567, 7
136, 13.17, 9.80, 10.42, 11.60, 0.000, 0.000, 0.000, 10:30:43.568, 7
137, 9.87, 6.00, 11.44, 8.19, 0.000, 0.000, 0.000, 10:30:43.569, 7
138, 14.29, 16.02, 21.39, 17.76, 0.000, 0.000, 0.000, 10:30:43.570, 7
139, 19.17, 21.15, 30.50, 18.53, 0.000, 0.000, 0.000, 10:30:43.582, 7
140, 13.79, 9.02, 10.68, 13.08, 0.000, 0.000, 0.000, 10:30:43.582, 7
141, 6.32, 10.28, 9.33, 8.72, 0.000, 0.000, 0.000, 10:30:43.599, 7
142, 16.05, 14.74, 14.36, 14.99, 0.000, 0.000, 0.000, 10:30:43.599, 7
143, 16.41, 23.46, 27.97, 19.97, 0.000, 0.000, 0.000, 10:30:43.600, 7
144, 14.54, 11.95, 17.28, 14.98, 0.000, 0.000, 0.000, 10:30:43.601, 7
145, 4.79, 5.77, 8.93, 11.38, 0.000, 0.000, 0.000, 10:30:43.613, 7
146, 15.35, 15.58, 11.93, 18.55, 0.000, 0.000, 0.000, 10:30:43.613, 7
147, 22.07, 16.07, 25.31, 24.71, 0.000, 0.000, 0.000, 10:30:43.628, 7
148, 12.81, 8.09, 5.74, 13.13, 0.000, 0.000, 0.000, 10:30:43.628, 7
149, 3.26, 4.78, 12.64, 11.12, 0.000, 0.000, 0.000, 10:30:43.629, 7
150, 17.74, 12.82, 15.19, 20.01, 0.000, 0.000, 0.000, 10:30:43.630, 7
151, 18.56, 19.81, 25.18, 23.47, 0.000, 0.000, 0.000, 10:30:43.643, 7
152, 9.61, 5.88, 14.40, 16.64, 0.000, 0.000, 0.000, 10:30:43.643, 7
153, 4.92, 5.43, 7.56, 12.23, 0.000, 0.000, 0.000, 10:30:43.658, 7
154, 18.45, 17.00, 22.16, 17.79, 0.000, 0.000, 0.000, 10:30:43.658, 7
155, 19.62, 18.98, 25.30, 24.43, 0.000, 0.000, 0.000, 10:30:43.659, 7
156, 12.82, 5.00, 10.11, 11.70, 0.000, 0.000, 0.000, 10:30:43.659, 7
157, 6.32, 3.97, 3.23, 9.58, 0.000, 0.000, 0.000, 10:30:43.672, 7
158, 15.90, 15.42, 21.11, 17.70, 0.000, 0.000, 0.000, 10:30:43.673, 7
159, 20.14, 20.21, 30.30, 29.20, 0.000, 0.000, 0.000, 10:30:43.688, 7
160, 11.00, 11.35, 15.28, 11.03, 0.000, 0.000, 0.000, 10:30:43.688, 7
161, 7.22, 4.79, 8.31, 6.12, 0.000, 0.000, 0.000, 10:30:43.689, 7
162, 19.46, 17.83, 21.80, 18.92, 0.000, 0.000, 0.000, 10:30:43.689, 7
163, 20.08, 21.93, 24.17, 22.96, 0.000, 0.000, 0.000, 10:30:43.703, 7
164, 11.53, 10.99, 10.65, 8.39, 0.000, 0.000, 0.000, 10:30:43.703, 7
165, 7.91, 2.66, 6.45, 9.32, 0.000, 0.000, 0.000, 10:30:43.717, 7
166, 15.31, 14.91, 18.32, 20.12, 0.000, 0.000, 0.000, 10:30:43.718, 7
167, 21.89, 20.49, 20.00, 19.72, 0.000, 0.000, 0.000, 10:30:43.719, 7
168, 14.74, 5.28, 15.71, 13.89, 0.000, 0.000, 0.000, 10:30:43.719, 7
169, 10.34, 10.04, 10.79, 8.32, 0.000, 0.000, 0.000, 10:30:43.733, 7
170, 13.28, 17.29, 21.77, 18.55, 0.000, 0.000, 0.000, 10:30:43.733, 7
171, 19.67, 22.22, 18.60, 22.93, 0.000, 0.000, 0.000, 10:30:43.748, 7
172, 8.69, 8.50, 15.59, 13.90, 0.000, 0.000, 0.000, 10:30:43.749, 7
173, 10.24, 4.61, 10.51, 9.15, 0.000, 0.000, 0.000, 10:30:43.749, 7
174, 11.72, 14.98, 20.40, 19.42, 0.000, 0.000, 0.000, 10:30:43.750, 7
175, 20.76, 23.22, 19.07, 23.81, 0.000, 0.000, 0.000, 10:30:43.769, 7
176, 12.37, 12.17, 19.90, 15.65, 0.000, 0.000, 0.000, 10:30:43.770, 7
177, 11.32, 6.65, 4.85, 5.18, 0.000, 0.000, 0.000, 10:30:43.777, 7
178, 15.91, 18.99, 21.46, 17.20, 0.000, 0.000, 0.000, 10:30:43.778, 7
179, 20.15, 20.46, 24.35, 20.22, 0.000, 0.000, 0.000, 10:30:43.778, 7
180, 9.80, 7.06, 14.14, 10.13, 0.000, 0.000, 0.000, 10:30:43.779, 7
181, 8.20, 2.50, 7.51, 5.66, 0.000, 0.000, 0.000, 10:30:43.792, 7
182, 13.15, 14.04, 20.94, 16.58, 0.000, 0.000, 0.000, 10:30:43.793, 7
183, 22.01, 17.81, 22.58, 20.52, 0.000, 0.000, 0.000, 10:30:43.807, 7
184, 8.26, 10.66, 13.80, 15.09, 0.000, 0.000, 0.000, 10:30:43.808, 7
185, 7.78, 7.51, 5.81, 11.14, 0.000, 0.000, 0.000, 10:30:43.808, 7
186, 20.46, 15.47, 25.05, 17.94, 0.000, 0.000, 0.000, 10:30:43.809, 7
187, 21.10, 19.33, 24.82, 23.94, 0.000, 0.000, 0.000, 10:30:43.822, 7
188, 10.88, 9.53, 14.13, 11.90, 0.000, 0.000, 0.000, 10:30:43.822, 7
189, 9.65, 6.43, 7.66, 6.76, 0.000, 0.000, 0.000, 10:30:43.837, 7
190, 14.91, 14.02, 22.82, 18.75, 0.000, 0.000, 0.000, 10:30:43.837, 7
191, 21.83, 21.84, 25.60, 27.23, 0.000, 0.000, 0.000, 10:30:43.838, 7
192, 15.59, 10.20, 11.86, 12.18, 0.000, 0.000, 0.000, 10:30:43.838, 7
193, 5.71, 4.02, 5.74, 9.57, 0.000, 0.000, 0.000, 10:30:43.852, 7
194, 20.41, 17.21, 16.36, 20.86, 0.000, 0.000, 0.000, 10:30:43.853, 7
195, 26.30, 21.11, 25.43, 25.47, 0.000, 0.000, 0.000, 10:30:43.868, 7
196, 6.54, 12.51, 20.30, 13.55, 0.000, 0.000, 0.000, 10:30:43.869, 7
197, 4.99, 5.14, 6.93, 11.20, 0.000, 0.000, 0.000, 10:30:43.870, 7
198, 16.64, 14.08, 15.50, 16.69, 0.000, 0.000, 0.000, 10:30:43.871, 7
199, 12.90, 19.48, 23.44, 23.68, 0.000, 0.000, 0.000, 10:30:43.882, 7
200, 9.78, 8.49, 14.02, 16.30, 0.000, 0.000, 0.000, 10:30:43.883, 7
0, 0.56, 5.31, 10.74, 10.22, 0.000, 0.000, 0.000, 10:30:43.884, 7
1, 15.65, 14.09, 21.16, 21.90, 0.000, 0.000, 0.000, 10:30:43.898, 7
2, 22.94, 20.00, 22.66, 24.95, 0.000, 0.000, 0.000, 10:30:43.898, 7
3, 14.14, 7.78, 12.33, 11.59, 0.000, 0.000, 0.000, 10:30:43.912, 7
4, 8.17, 4.95, 3.18, 9.25, 0.000, 0.000, 0.000, 10:30:43.912, 7
5, 16.54, 14.09, 18.42, 21.13, 0.000, 0.000, 0.000, 10:30:43.913, 7
6, 17.94, 21.21, 24.31, 23.31, 0.000, 0.000, 0.000, 10:30:43.914, 7
7, 10.18, 7.70, 14.05, 10.31, 0.000, 0.000, 0.000, 10:30:43.927, 7
8, 8.81, 3.25, 11.46, 6.34, 0.000, 0.000, 0.000, 10:30:43.928, 7
9, 19.28, 15.63, 24.37, 15.32, 0.000, 0.000, 0.000, 10:30:43.976, 7
10, 19.55, 20.05, 26.74, 23.80, 0.000, 0.000, 0.000, 10:30:43.976, 7
11, 8.71, 13.04, 10.69, 12.34, 0.000, 0.000, 0.000, 10:30:43.977, 7
12, 13.22, 5.81, 11.64, 3.83, 0.000, 0.000, 0.000, 10:30:43.977, 7
13, 20.81, 16.33, 16.76, 16.43, 0.000, 0.000, 0.000, 10:30:43.978, 7
14, 22.49, 19.10, 27.97, 19.55, 0.000, 0.000, 0.000, 10:30:43.979, 7
15, 12.69, 9.43, 13.64, 9.84, 0.000, 0.000, 0.000, 10:30:43.980, 7
16, 5.41, 4.64, 7.45, 0.53, 0.000, 0.000, 0.000, 10:30:43.981, 7
17, 12.67, 15.00, 18.33, 13.54, 0.000, 0.000, 0.000, 10:30:43.982, 7
18, 18.71, 19.42, 29.11, 21.36, 0.000, 0.000, 0.000, 10:30:43.982, 7
19, 8.78, 8.50, 11.97, 13.31, 0.000, 0.000, 0.000, 10:30:43.988, 7
20, 3.11, 4.45, 4.06, 4.44, 0.000, 0.000, 0.000, 10:30:43.989, 7
21, 18.23, 18.90, 21.80, 21.90, 0.000, 0.000, 0.000, 10:30:44.002, 7
22, 20.47, 21.37, 24.71, 23.58, 0.000, 0.000, 0.000, 10:30:44.002, 7
23, 14.80, 6.29, 10.98, 8.18, 0.000, 0.000, 0.000, 10:30:44.003, 7
24, 8.33, 9.24, 10.75, 8.44, 0.000, 0.000, 0.000, 10:30:44.003, 7
25, 13.12, 14.66, 17.13, 18.94, 0.000, 0.000, 0.000, 10:30:44.018, 7
26, 19.58, 19.61, 22.77, 22.89, 0.000, 0.000, 0.000, 10:30:44.018, 7
27, 10.10, 9.64, 12.77, 10.85, 0.000, 0.000, 0.000, 10:30:44.032, 7
28, 8.53, 4.66, 13.40, 10.01, 0.000, 0.000, 0.000, 10:30:44.032, 7
29, 17.18, 15.34, 25.51, 14.18, 0.000, 0.000, 0.000, 10:30:44.033, 7
30, 18.69, 19.62, 13.65, 20.27, 0.000, 0.000, 0.000, 10:30:44.034, 7
31, 13.71, 10.04, 17.13, 8.19, 0.000, 0.000, 0.000, 10:30:44.047, 7
32, 5.56, 4.56, 3.94, 5.95, 0.000, 0.000, 0.000, 10:30:44.048, 7
33, 16.69, 14.56, 21.13, 14.87, 0.000, 0.000, 0.000, 10:30:44.069, 7
34, 21.40, 20.89, 14.43, 28.05, 0.000, 0.000, 0.000, 10:30:44.069, 7
35, 4.34, 8.71, 12.91, 11.04, 0.000, 0.000, 0.000, 10:30:44.070, 7
36, 6.00, 5.91, 9.84, 12.95, 0.000, 0.000, 0.000, 10:30:44.070, 7
37, 17.59, 17.36, 21.19, 16.33, 0.000, 0.000, 0.000, 10:30:44.077, 7
38, 21.56, 19.44, 24.51, 26.01, 0.000, 0.000, 0.000, 10:30:44.077, 7
39, 12.84, 11.55, 11.21, 15.21, 0.000, 0.000, 0.000, 10:30:44.092, 7
40, 11.62, 7.21, 12.32, 9.67, 0.000, 0.000, 0.000, 10:30:44.092, 7
41, 10.04, 13.99, 22.69, 22.16, 0.000, 0.000, 0.000, 10:30:44.093, 7
42, 24.11, 17.80, 30.01, 22.13, 0.000, 0.000, 0.000, 10:30:44.093, 7
43, 11.16, 8.99, 17.36, 11.53, 0.000, 0.000, 0.000, 10:30:44.107, 7
44, 8.04, 4.74, 9.15, 7.57, 0.000, 0.000, 0.000, 10:30:44.107, 7
45, 17.78, 17.74, 17.21, 14.81, 0.000, 0.000, 0.000, 10:30:44.122, 7
46, 19.67, 18.00, 19.68, 22.51, 0.000, 0.000, 0.000, 10:30:44.122, 7
47, 2.22, 8.37, 5.73, 13.00, 0.000, 0.000, 0.000, 10:30:44.122, 7
48, 7.57, 8.73, 9.39, 7.95, 0.000, 0.000, 0.000, 10:30:44.123, 7
49, 17.88, 15.59, 15.59, 20.81, 0.000, 0.000, 0.000, 10:30:44.137, 7
50, 21.60, 17.79, 23.16, 19.24, 0.000, 0.000, 0.000, 10:30:44.137, 7
51, 7.58, 10.49, 11.06, 10.88, 0.000, 0.000, 0.000, 10:30:44.152, 7
52, 6.30, 2.51, 9.91, 5.78, 0.000, 0.000, 0.000, 10:30:44.152, 7
53, 14.32, 17.40, 19.61, 17.91, 0.000, 0.000, 0.000, 10:30:44.152, 7
54, 15.85, 23.67, 24.75, 17.61, 0.000, 0.000, 0.000, 10:30:44.152, 7
55, 13.16, 7.61, 11.62, 9.99, 0.000, 0.000, 0.000, 10:30:44.167, 7
56, 6.80, 1.12, 12.13, 9.42, 0.000, 0.000, 0.000, 10:30:44.168, 7
57, 20.09, 14.83, 26.93, 21.81, 0.000, 0.000, 0.000, 10:30:44.181, 7
58, 23.14, 22.32, 26.86, 20.60, 0.000, 0.000, 0.000, 10:30:44.182, 7
59, 16.06, 11.52, 14.13, 17.51, 0.000, 0.000, 0.000, 10:30:44.189, 7
60, 11.68, 3.82, 7.59, 9.02, 0.000, 0.000, 0.000, 10:30:44.189, 7
61, 16.18, 12.75, 16.84, 18.73, 0.000, 0.000, 0.000, 10:30:44.197, 7
62, 20.35, 20.47, 21.47, 27.33, 0.000, 0.000, 0.000, 10:30:44.197, 7
63, 12.18, 8.90, 14.61, 9.75, 0.000, 0.000, 0.000, 10:30:44.212, 7
64, 4.25, 6.03, 11.21, 5.86, 0.000, 0.000, 0.000, 10:30:44.212, 7
65, 18.31, 18.81, 16.74, 16.23, 0.000, 0.000, 0.000, 10:30:44.213, 7
66, 22.12, 21.77, 24.26, 18.05, 0.000, 0.000, 0.000, 10:30:44.214, 7
67, 7.72, 5.96, 10.21, 12.27, 0.000, 0.000, 0.000, 10:30:44.227, 7
68, 7.03, 5.48, 11.20, 5.91, 0.000, 0.000, 0.000, 10:30:44.227, 7
69, 13.46, 14.10, 19.12, 13.46, 0.000, 0.000, 0.000, 10:30:44.242, 7
70, 23.21, 16.00, 19.86, 21.17, 0.000, 0.000, 0.000, 10:30:44.242, 7
71, 4.22, 10.00, 7.03, 15.44, 0.000, 0.000, 0.000, 10:30:44.243, 7
72, 8.50, 3.72, 4.78, 5.47, 0.000, 0.000, 0.000, 10:30:44.243, 7
73, 12.90, 13.14, 19.37, 17.84, 0.000, 0.000, 0.000, 10:30:44.257, 7
74, 24.02, 23.55, 28.44, 26.26, 0.000, 0.000, 0.000, 10:30:44.257, 7
75, 11.41, 10.59, 10.54, 12.21, 0.000, 0.000, 0.000, 10:30:44.288, 7
76, 6.34, 4.84, 8.96, 12.85, 0.000, 0.000, 0.000, 10:30:44.288, 7
77, 18.19, 16.99, 19.79, 19.68, 0.000, 0.000, 0.000, 10:30:44.295, 7
78, 22.66, 23.03, 25.58, 23.52, 0.000, 0.000, 0.000, 10:30:44.295, 7
79, 8.83, 7.91, 13.50, 9.42, 0.000, 0.000, 0.000, 10:30:44.296, 7
80, 9.03, 6.84, 10.32, 7.79, 0.000, 0.000, 0.000, 10:30:44.297, 7
81, 17.61, 16.62, 23.41, 21.07, 0.000, 0.000, 0.000, 10:30:44.303, 7
82, 27.61, 21.74, 28.48, 21.41, 0.000, 0.000, 0.000, 10:30:44.304, 7
83, 12.29, 11.55, 14.14, 9.50, 0.000, 0.000, 0.000, 10:30:44.304, 7
84, 4.12, 5.78, 15.56, 6.97, 0.000, 0.000, 0.000, 10:30:44.305, 7
85, 20.14, 16.41, 23.12, 24.18, 0.000, 0.000, 0.000, 10:30:44.318, 7
86, 17.04, 19.38, 23.50, 25.06, 0.000, 0.000, 0.000, 10:30:44.318, 7
87, 4.21, 8.76, 15.59, 7.17, 0.000, 0.000, 0.000, 10:30:44.333, 7
88, 8.69, 4.78, 1.95, 9.28, 0.000, 0.000, 0.000, 10:30:44.333, 7
89, 14.58, 18.94, 14.16, 23.58, 0.000, 0.000, 0.000, 10:30:44.334, 7
90, 18.88, 17.62, 25.10, 24.68, 0.000, 0.000, 0.000, 10:30:44.334, 7
91, 14.53, 8.01, 6.30, 11.35, 0.000, 0.000, 0.000, 10:30:44.349, 7
92, 7.57, 2.03, 8.81, 5.40, 0.000, 0.000, 0.000, 10:30:44.349, 7
93, 17.45, 15.60, 24.80, 19.15, 0.000, 0.000, 0.000, 10:30:44.362, 7
94, 16.92, 22.70, 18.85, 21.44, 0.000, 0.000, 0.000, 10:30:44.363, 7
95, 15.93, 8.48, 12.99, 13.67, 0.000, 0.000, 0.000, 10:30:44.363, 7
96, 5.65, 5.20, 9.31, 6.09, 0.000, 0.000, 0.000, 10:30:44.364, 7
97, 22.35, 18.23, 22.30, 22.52, 0.000, 0.000, 0.000, 10:30:44.378, 7
98, 14.80, 21.53, 26.21, 21.38, 0.000, 0.000, 0.000, 10:30:44.378, 7
99, 12.44, 9.71, 11.24, 16.17, 0.000, 0.000, 0.000, 10:30:44.392, 7
100, 1.62, 4.32, 9.58, 12.03, 0.000, 0.000, 0.000, 10:30:44.393, 7
101, 14.76, 18.97, 18.65, 21.12, 0.000, 0.000, 0.000, 10:30:44.394, 7
102, 16.81, 19.85, 28.92, 20.60, 0.000, 0.000, 0.000, 10:30:44.394, 7
103, 14.57, 10.74, 13.03, 13.67, 0.000, 0.000, 0.000, 10:30:44.407, 7
104, 9.34, 3.40, 10.79, 7.12, 0.000, 0.000, 0.000, 10:30:44.408, 7
105, 18.34, 15.76, 27.21, 18.78, 0.000, 0.000, 0.000, 10:30:44.422, 7
106, 21.84, 24.34, 22.06, 21.84, 0.000, 0.000, 0.000, 10:30:44.423, 7
107, 13.34, 10.80, 11.57, 16.33, 0.000, 0.000, 0.000, 10:30:44.423, 7
108, 6.01, 2.43, 6.10, 8.53, 0.000, 0.000, 0.000, 10:30:44.424, 7
109, 16.98, 13.31, 20.31, 22.53, 0.000, 0.000, 0.000, 10:30:44.437, 7
110, 18.30, 19.82, 21.77, 26.92, 0.000, 0.000, 0.000, 10:30:44.438, 7
111, 13.05, 8.98, 17.35, 16.83, 0.000, 0.000, 0.000, 10:30:44.453, 7
112, 2.66, 5.39, 5.69, 14.56, 0.000, 0.000, 0.000, 10:30:44.453, 7
113, 21.13, 18.50, 21.48, 24.34, 0.000, 0.000, 0.000, 10:30:44.454, 7
114, 28.54, 22.39, 24.93, 29.85, 0.000, 0.000, 0.000, 10:30:44.454, 7
115, 14.12, 5.89, 11.80, 10.24, 0.000, 0.000, 0.000, 10:30:44.467, 7
116, 5.68, 7.59, 4.07, 7.92, 0.000, 0.000, 0.000, 10:30:44.468, 7
117, 15.58, 16.65, 25.28, 19.19, 0.000, 0.000, 0.000, 10:30:44.483, 7
118, 23.80, 23.18, 28.73, 24.06, 0.000, 0.000, 0.000, 10:30:44.483, 7
119, 5.46, 10.89, 13.12, 14.25, 0.000, 0.000, 0.000, 10:30:44.484, 7
120, 7.75, 3.79, 9.60, 11.10, 0.000, 0.000, 0.000, 10:30:44.484, 7
121, 16.50, 13.24, 18.23, 15.61, 0.000, 0.000, 0.000, 10:30:44.498, 7
122, 20.10, 17.61, 22.43, 26.76, 0.000, 0.000, 0.000, 10:30:44.498, 7
123, 7.25, 13.17, 10.19, 9.28, 0.000, 0.000, 0.000, 10:30:44.512, 7
124, 4.43, 6.94, 7.89, 0.28, 0.000, 0.000, 0.000, 10:30:44.513, 7
125, 17.15, 16.88, 24.96, 18.09, 0.000, 0.000, 0.000, 10:30:44.514, 7
126, 28.05, 18.71, 26.05, 20.04, 0.000, 0.000, 0.000, 10:30:44.515, 7
127, 15.36, 7.71, 13.34, 11.30, 0.000, 0.000, 0.000, 10:30:44.527, 7
128, 8.05, 5.66, 10.37, 4.69, 0.000, 0.000, 0.000, 10:30:44.527, 7
129, 11.65, 18.44, 21.01, 21.61, 0.000, 0.000, 0.000, 10:30:44.541, 7
130, 22.04, 18.96, 20.63, 24.65, 0.000, 0.000, 0.000, 10:30:44.541, 7
131, 9.25, 9.44, 15.20, 8.58, 0.000, 0.000, 0.000, 10:30:44.542, 7
132, 1.86, 2.35, 4.77, 4.98, 0.000, 0.000, 0.000, 10:30:44.542, 7
133, 15.64, 13.61, 14.76, 17.31, 0.000, 0.000, 0.000, 10:30:44.557, 7
134, 21.63, 20.31, 28.40, 21.20, 0.000, 0.000, 0.000, 10:30:44.557, 7
135, 9.67, 7.01, 7.58, 10.51, 0.000, 0.000, 0.000, 10:30:44.572, 7
136, 9.61, 5.84, 4.39, 10.25, 0.000, 0.000, 0.000, 10:30:44.572, 7
137, 21.22, 15.53, 19.60, 20.98, 0.000, 0.000, 0.000, 10:30:44.580, 7
138, 20.94, 20.73, 30.05, 26.30, 0.000, 0.000, 0.000, 10:30:44.581, 7
