%OpenBCI Raw EEG Data
%
%Sample Rate = 200.0 Hz
%First Column = SampleIndex
%Last Column = Timestamp 
%Other Columns = EEG data in microvolts followed by Accel Data (in G) interleaved with Aux Data
0, 11.26, 10.90, 0.00, 15.05, 0.000, 0.000, 0.000, 09:24:29.318, 7
1, 13.27, 10.16, 0.00, 13.33, 0.000, 0.000, 0.000, 09:24:29.335, 7
2, 11.99, 8.40, 0.00, 12.80, 0.000, 0.000, 0.000, 09:24:29.337, 7
3, 19.90, 20.60, 0.00, 23.83, 0.000, 0.000, 0.000, 09:24:29.343, 7
4, 18.29, 17.95, 0.00, 18.72, 0.000, 0.000, 0.000, 09:24:29.346, 7
5, 8.85, 6.25, 0.00, 10.78, 0.000, 0.000, 0.000, 09:24:29.352, 7
6, 15.05, 17.11, 0.00, 22.18, 0.000, 0.000, 0.000, 09:24:29.354, 7
7, 17.84, 18.01, 0.00, 22.87, 0.000, 0.000, 0.000, 09:24:29.358, 7
8, 11.79, 14.23, 0.00, 15.11, 0.000, 0.000, 0.000, 09:24:29.359, 7
9, 12.35, 10.43, 0.00, 13.58, 0.000, 0.000, 0.000, 09:24:29.371, 7
10, 11.83, 14.41, 0.00, 17.76, 0.000, 0.000, 0.000, 09:24:29.373, 7
11, 18.03, 14.55, 0.00, 17.30, 0.000, 0.000, 0.000, 09:24:29.375, 7
12, 16.00, 14.12, 0.00, 17.25, 0.000, 0.000, 0.000, 09:24:29.381, 7
13, 13.33, 12.00, 0.00, 13.19, 0.000, 0.000, 0.000, 09:24:29.393, 7
14, 11.55, 7.70, 0.00, 10.65, 0.000, 0.000, 0.000, 09:24:29.395, 7
15, 16.29, 16.61, 0.00, 24.14, 0.000, 0.000, 0.000, 09:24:29.419, 7
16, 16.66, 15.71, 0.00, 16.80, 0.000, 0.000, 0.000, 09:24:29.419, 7
17, 14.14, 10.22, 0.00, 15.54, 0.000, 0.000, 0.000, 09:24:29.419, 7
18, 18.80, 12.13, 0.00, 16.26, 0.000, 0.000, 0.000, 09:24:29.419, 7
19, 18.52, 20.86, 0.00, 24.81, 0.000, 0.000, 0.000, 09:24:29.420, 7
20, 12.58, 13.95, 0.00, 16.10, 0.000, 0.000, 0.000, 09:24:29.420, 7
21, 13.06, 9.69, 0.00, 14.93, 0.000, 0.000, 0.000, 09:24:29.421, 7
22, 15.68, 15.02, 0.00, 16.59, 0.000, 0.000, 0.000, 09:24:29.421, 7
23, 18.08, 15.92, 0.00, 16.23, 0.000, 0.000, 0.000, 09:24:29.448, 7
24, 17.28, 16.27, 0.00, 19.74, 0.000, 0.000, 0.000, 09:24:29.448, 7
25, 10.90, 7.22, 0.00, 13.95, 0.000, 0.000, 0.000, 09:24:29.450, 7
26, 11.58, 13.74, 0.00, 13.53, 0.000, 0.000, 0.000, 09:24:29.453, 7
27, 18.06, 14.02, 0.00, 20.77, 0.000, 0.000, 0.000, 09:24:29.463, 7
28, 12.92, 16.72, 0.00, 14.93, 0.000, 0.000, 0.000, 09:24:29.464, 7
29, 8.35, 7.88, 0.00, 8.57, 0.000, 0.000, 0.000, 09:24:29.464, 7
30, 13.78, 14.78, 0.00, 16.77, 0.000, 0.000, 0.000, 09:24:29.465, 7
31, 18.97, 13.49, 0.00, 20.07, 0.000, 0.000, 0.000, 09:24:29.477, 7
32, 10.47, 13.16, 0.00, 8.44, 0.000, 0.000, 0.000, 09:24:29.478, 7
33, 12.57, 10.99, 0.00, 12.70, 0.000, 0.000, 0.000, 09:24:29.492, 7
34, 17.26, 14.34, 0.00, 17.18, 0.000, 0.000, 0.000, 09:24:29.493, 7
35, 15.59, 15.84, 0.00, 17.10, 0.000, 0.000, 0.000, 09:24:29.493, 7
36, 16.01, 14.11, 0.00, 16.53, 0.000, 0.000, 0.000, 09:24:29.493, 7
37, 12.21, 10.63, 0.00, 12.15, 0.000, 0.000, 0.000, 09:24:29.507, 7
38, 13.36, 11.39, 0.00, 12.73, 0.000, 0.000, 0.000, 09:24:29.507, 7
39, 18.67, 16.86, 0.00, 23.36, 0.000, 0.000, 0.000, 09:24:29.523, 7
40, 14.07, 13.11, 0.00, 16.58, 0.000, 0.000, 0.000, 09:24:29.523, 7
41, 11.97, 8.33, 0.00, 12.06, 0.000, 0.000, 0.000, 09:24:29.539, 7
42, 17.52, 13.95, 0.00, 17.24, 0.000, 0.000, 0.000, 09:24:29.540, 7
43, 16.25, 16.70, 0.00, 18.79, 0.000, 0.000, 0.000, 09:24:29.541, 7
44, 8.75, 8.94, 0.00, 10.84, 0.000, 0.000, 0.000, 09:24:29.542, 7
45, 10.94, 8.02, 0.00, 15.23, 0.000, 0.000, 0.000, 09:24:29.567, 7
46, 18.74, 17.29, 0.00, 17.83, 0.000, 0.000, 0.000, 09:24:29.568, 7
47, 16.85, 16.83, 0.00, 18.47, 0.000, 0.000, 0.000, 09:24:29.568, 7
48, 15.77, 13.69, 0.00, 17.29, 0.000, 0.000, 0.000, 09:24:29.569, 7
49, 14.17, 12.52, 0.00, 12.52, 0.000, 0.000, 0.000, 09:24:29.570, 7
50, 12.53, 12.50, 0.00, 15.20, 0.000, 0.000, 0.000, 09:24:29.570, 7
51, 17.70, 15.81, 0.00, 20.06, 0.000, 0.000, 0.000, 09:24:29.571, 7
52, 18.26, 12.18, 0.00, 17.38, 0.000, 0.000, 0.000, 09:24:29.571, 7
53, 11.72, 5.10, 0.00, 10.80, 0.000, 0.000, 0.000, 09:24:29.582, 7
54, 17.53, 19.74, 0.00, 17.63, 0.000, 0.000, 0.000, 09:24:29.583, 7
55, 17.58, 16.88, 0.00, 22.53, 0.000, 0.000, 0.000, 09:24:29.613, 7
56, 10.74, 13.11, 0.00, 13.36, 0.000, 0.000, 0.000, 09:24:29.613, 7
57, 9.18, 11.77, 0.00, 10.09, 0.000, 0.000, 0.000, 09:24:29.614, 7
58, 16.08, 16.01, 0.00, 17.33, 0.000, 0.000, 0.000, 09:24:29.616, 7
59, 17.58, 14.41, 0.00, 19.78, 0.000, 0.000, 0.000, 09:24:29.617, 7
60, 14.98, 16.52, 0.00, 19.48, 0.000, 0.000, 0.000, 09:24:29.618, 7
61, 12.27, 10.43, 0.00, 14.21, 0.000, 0.000, 0.000, 09:24:29.627, 7
62, 11.17, 12.99, 0.00, 12.93, 0.000, 0.000, 0.000, 09:24:29.629, 7
63, 19.51, 15.16, 0.00, 22.46, 0.000, 0.000, 0.000, 09:24:29.643, 7
64, 14.75, 12.75, 0.00, 16.00, 0.000, 0.000, 0.000, 09:24:29.643, 7
65, 13.79, 7.00, 0.00, 8.82, 0.000, 0.000, 0.000, 09:24:29.644, 7
66, 14.69, 14.47, 0.00, 17.39, 0.000, 0.000, 0.000, 09:24:29.645, 7
67, 20.17, 19.28, 0.00, 20.48, 0.000, 0.000, 0.000, 09:24:29.657, 7
68, 15.40, 14.47, 0.00, 17.60, 0.000, 0.000, 0.000, 09:24:29.658, 7
69, 11.56, 13.45, 0.00, 13.84, 0.000, 0.000, 0.000, 09:24:29.687, 7
70, 11.01, 16.14, 0.00, 15.40, 0.000, 0.000, 0.000, 09:24:29.687, 7
71, 17.55, 13.41, 0.00, 17.85, 0.000, 0.000, 0.000, 09:24:29.687, 7
72, 14.07, 13.44, 0.00, 15.70, 0.000, 0.000, 0.000, 09:24:29.688, 7
73, 12.56, 9.93, 0.00, 10.79, 0.000, 0.000, 0.000, 09:24:29.688, 7
74, 16.32, 13.33, 0.00, 19.30, 0.000, 0.000, 0.000, 09:24:29.689, 7
75, 19.30, 16.92, 0.00, 19.49, 0.000, 0.000, 0.000, 09:24:29.689, 7
76, 13.17, 10.45, 0.00, 11.95, 0.000, 0.000, 0.000, 09:24:29.689, 7
77, 10.88, 7.27, 0.00, 13.51, 0.000, 0.000, 0.000, 09:24:29.702, 7
78, 12.33, 18.90, 0.00, 20.20, 0.000, 0.000, 0.000, 09:24:29.702, 7
79, 19.81, 21.81, 0.00, 18.88, 0.000, 0.000, 0.000, 09:24:29.734, 7
80, 11.23, 10.78, 0.00, 12.08, 0.000, 0.000, 0.000, 09:24:29.734, 7
81, 12.73, 13.40, 0.00, 14.22, 0.000, 0.000, 0.000, 09:24:29.735, 7
82, 13.74, 13.82, 0.00, 17.53, 0.000, 0.000, 0.000, 09:24:29.736, 7
83, 16.32, 12.96, 0.00, 19.90, 0.000, 0.000, 0.000, 09:24:29.736, 7
84, 9.04, 9.74, 0.00, 10.40, 0.000, 0.000, 0.000, 09:24:29.737, 7
85, 12.03, 9.16, 0.00, 11.48, 0.000, 0.000, 0.000, 09:24:29.749, 7
86, 17.71, 12.56, 0.00, 13.86, 0.000, 0.000, 0.000, 09:24:29.750, 7
87, 20.84, 14.07, 0.00, 22.50, 0.000, 0.000, 0.000, 09:24:29.761, 7
88, 17.87, 12.56, 0.00, 18.45, 0.000, 0.000, 0.000, 09:24:29.762, 7
89, 10.17, 5.01, 0.00, 10.06, 0.000, 0.000, 0.000, 09:24:29.763, 7
90, 15.14, 17.25, 0.00, 22.04, 0.000, 0.000, 0.000, 09:24:29.765, 7
91, 16.51, 17.54, 0.00, 21.91, 0.000, 0.000, 0.000, 09:24:29.776, 7
92, 11.83, 13.11, 0.00, 12.42, 0.000, 0.000, 0.000, 09:24:29.777, 7
93, 11.32, 11.27, 0.00, 16.59, 0.000, 0.000, 0.000, 09:24:29.807, 7
94, 18.28, 15.67, 0.00, 21.81, 0.000, 0.000, 0.000, 09:24:29.807, 7
95, 15.33, 18.67, 0.00, 20.75, 0.000, 0.000, 0.000, 09:24:29.808, 7
96, 14.72, 13.41, 0.00, 17.80, 0.000, 0.000, 0.000, 09:24:29.808, 7
97, 14.90, 10.48, 0.00, 13.62, 0.000, 0.000, 0.000, 09:24:29.809, 7
98, 16.66, 11.30, 0.00, 18.04, 0.000, 0.000, 0.000, 09:24:29.809, 7
99, 17.37, 16.49, 0.00, 20.27, 0.000, 0.000, 0.000, 09:24:29.809, 7
100, 11.59, 12.17, 0.00, 13.36, 0.000, 0.000, 0.000, 09:24:29.810, 7
101, 15.40, 10.76, 0.00, 10.48, 0.000, 0.000, 0.000, 09:24:29.822, 7
102, 14.11, 14.72, 0.00, 20.13, 0.000, 0.000, 0.000, 09:24:29.822, 7
103, 16.50, 19.40, 0.00, 20.95, 0.000, 0.000, 0.000, 09:24:29.852, 7
104, 14.91, 14.11, 0.00, 14.95, 0.000, 0.000, 0.000, 09:24:29.853, 7
105, 10.28, 11.15, 0.00, 10.24, 0.000, 0.000, 0.000, 09:24:29.853, 7
106, 13.59, 13.60, 0.00, 19.88, 0.000, 0.000, 0.000, 09:24:29.853, 7
107, 14.28, 15.33, 0.00, 18.88, 0.000, 0.000, 0.000, 09:24:29.853, 7
108, 17.82, 11.86, 0.00, 12.93, 0.000, 0.000, 0.000, 09:24:29.853, 7
109, 12.95, 10.86, 0.00, 15.06, 0.000, 0.000, 0.000, 09:24:29.883, 7
110, 16.08, 11.39, 0.00, 10.27, 0.000, 0.000, 0.000, 09:24:29.883, 7
111, 16.67, 20.80, 0.00, 19.02, 0.000, 0.000, 0.000, 09:24:29.884, 7
112, 11.61, 14.12, 0.00, 15.30, 0.000, 0.000, 0.000, 09:24:29.884, 7
113, 11.18, 6.80, 0.00, 8.38, 0.000, 0.000, 0.000, 09:24:29.898, 7
114, 17.34, 12.71, 0.00, 19.39, 0.000, 0.000, 0.000, 09:24:29.899, 7
115, 18.79, 17.12, 0.00, 22.04, 0.000, 0.000, 0.000, 09:24:29.900, 7
116, 8.55, 8.43, 0.00, 11.76, 0.000, 0.000, 0.000, 09:24:29.900, 7
117, 15.31, 11.51, 0.00, 17.35, 0.000, 0.000, 0.000, 09:24:29.913, 7
118, 16.10, 16.13, 0.00, 16.03, 0.000, 0.000, 0.000, 09:24:29.914, 7
119, 17.96, 12.62, 0.00, 12.93, 0.000, 0.000, 0.000, 09:24:29.928, 7
120, 13.78, 14.70, 0.00, 16.13, 0.000, 0.000, 0.000, 09:24:29.931, 7
121, 11.27, 11.99, 0.00, 14.86, 0.000, 0.000, 0.000, 09:24:29.932, 7
122, 13.50, 11.14, 0.00, 10.78, 0.000, 0.000, 0.000, 09:24:29.932, 7
123, 14.79, 17.31, 0.00, 17.86, 0.000, 0.000, 0.000, 09:24:29.945, 7
124, 12.49, 11.22, 0.00, 15.08, 0.000, 0.000, 0.000, 09:24:29.947, 7
125, 9.12, 7.27, 0.00, 13.14, 0.000, 0.000, 0.000, 09:24:29.957, 7
126, 18.22, 18.17, 0.00, 20.49, 0.000, 0.000, 0.000, 09:24:29.958, 7
127, 16.49, 18.46, 0.00, 21.78, 0.000, 0.000, 0.000, 09:24:29.972, 7
128, 12.06, 11.34, 0.00, 16.23, 0.000, 0.000, 0.000, 09:24:29.973, 7
129, 13.42, 12.35, 0.00, 20.71, 0.000, 0.000, 0.000, 09:24:29.973, 7
130, 14.01, 16.35, 0.00, 16.72, 0.000, 0.000, 0.000, 09:24:29.974, 7
131, 15.20, 19.65, 0.00, 16.39, 0.000, 0.000, 0.000, 09:24:29.974, 7
132, 11.05, 13.98, 0.00, 12.04, 0.000, 0.000, 0.000, 09:24:29.974, 7
133, 11.21, 9.53, 0.00, 16.18, 0.000, 0.000, 0.000, 09:24:30.003, 7
134, 12.03, 8.22, 0.00, 16.33, 0.000, 0.000, 0.000, 09:24:30.003, 7
135, 17.93, 16.89, 0.00, 20.75, 0.000, 0.000, 0.000, 09:24:30.003, 7
136, 14.08, 12.45, 0.00, 15.67, 0.000, 0.000, 0.000, 09:24:30.004, 7
137, 11.19, 8.56, 0.00, 9.08, 0.000, 0.000, 0.000, 09:24:30.010, 7
138, 17.01, 14.99, 0.00, 16.55, 0.000, 0.000, 0.000, 09:24:30.011, 7
139, 19.67, 18.74, 0.00, 22.84, 0.000, 0.000, 0.000, 09:24:30.018, 7
140, 14.10, 5.02, 0.00, 9.58, 0.000, 0.000, 0.000, 09:24:30.019, 7
141, 12.59, 10.61, 0.00, 13.28, 0.000, 0.000, 0.000, 09:24:30.032, 7
142, 18.90, 19.80, 0.00, 17.76, 0.000, 0.000, 0.000, 09:24:30.033, 7
143, 14.05, 16.08, 0.00, 19.53, 0.000, 0.000, 0.000, 09:24:30.047, 7
144, 14.19, 11.53, 0.00, 16.06, 0.000, 0.000, 0.000, 09:24:30.049, 7
145, 12.15, 9.10, 0.00, 10.88, 0.000, 0.000, 0.000, 09:24:30.051, 7
146, 13.02, 16.01, 0.00, 16.18, 0.000, 0.000, 0.000, 09:24:30.052, 7
147, 19.84, 17.22, 0.00, 20.95, 0.000, 0.000, 0.000, 09:24:30.063, 7
148, 16.13, 12.73, 0.00, 16.54, 0.000, 0.000, 0.000, 09:24:30.064, 7
149, 10.31, 7.11, 0.00, 10.43, 0.000, 0.000, 0.000, 09:24:30.073, 7
150, 17.36, 19.89, 0.00, 19.54, 0.000, 0.000, 0.000, 09:24:30.073, 7
151, 14.12, 17.63, 0.00, 19.05, 0.000, 0.000, 0.000, 09:24:30.076, 7
152, 10.41, 10.30, 0.00, 13.56, 0.000, 0.000, 0.000, 09:24:30.077, 7
153, 11.60, 11.38, 0.00, 9.23, 0.000, 0.000, 0.000, 09:24:30.091, 7
154, 15.02, 15.36, 0.00, 16.58, 0.000, 0.000, 0.000, 09:24:30.092, 7
155, 15.99, 13.34, 0.00, 16.39, 0.000, 0.000, 0.000, 09:24:30.092, 7
156, 11.54, 12.53, 0.00, 16.03, 0.000, 0.000, 0.000, 09:24:30.093, 7
157, 11.45, 12.23, 0.00, 14.73, 0.000, 0.000, 0.000, 09:24:30.121, 7
158, 16.26, 8.99, 0.00, 15.47, 0.000, 0.000, 0.000, 09:24:30.122, 7
159, 18.70, 13.50, 0.00, 20.02, 0.000, 0.000, 0.000, 09:24:30.122, 7
160, 14.31, 14.07, 0.00, 17.36, 0.000, 0.000, 0.000, 09:24:30.122, 7
161, 11.42, 10.81, 0.00, 13.35, 0.000, 0.000, 0.000, 09:24:30.122, 7
162, 16.97, 15.76, 0.00, 17.78, 0.000, 0.000, 0.000, 09:24:30.123, 7
163, 17.16, 14.04, 0.00, 17.96, 0.000, 0.000, 0.000, 09:24:30.136, 7
164, 12.70, 9.69, 0.00, 8.64, 0.000, 0.000, 0.000, 09:24:30.137, 7
165, 11.77, 10.17, 0.00, 10.95, 0.000, 0.000, 0.000, 09:24:30.167, 7
166, 16.77, 15.07, 0.00, 18.96, 0.000, 0.000, 0.000, 09:24:30.167, 7
167, 16.12, 18.82, 0.00, 18.56, 0.000, 0.000, 0.000, 09:24:30.167, 7
168, 10.71, 8.50, 0.00, 17.21, 0.000, 0.000, 0.000, 09:24:30.167, 7
169, 12.70, 13.53, 0.00, 13.39, 0.000, 0.000, 0.000, 09:24:30.168, 7
170, 16.18, 15.45, 0.00, 15.59, 0.000, 0.000, 0.000, 09:24:30.168, 7
171, 20.78, 14.24, 0.00, 21.71, 0.000, 0.000, 0.000, 09:24:30.168, 7
172, 14.67, 12.87, 0.00, 15.62, 0.000, 0.000, 0.000, 09:24:30.168, 7
173, 11.43, 7.19, 0.00, 13.02, 0.000, 0.000, 0.000, 09:24:30.182, 7
174, 17.04, 17.34, 0.00, 20.46, 0.000, 0.000, 0.000, 09:24:30.185, 7
175, 16.50, 15.96, 0.00, 18.56, 0.000, 0.000, 0.000, 09:24:30.214, 7
176, 12.72, 6.53, 0.00, 11.43, 0.000, 0.000, 0.000, 09:24:30.214, 7
177, 11.85, 10.67, 0.00, 15.94, 0.000, 0.000, 0.000, 09:24:30.214, 7
178, 15.97, 15.83, 0.00, 15.12, 0.000, 0.000, 0.000, 09:24:30.215, 7
179, 13.80, 17.50, 0.00, 14.60, 0.000, 0.000, 0.000, 09:24:30.216, 7
180, 14.15, 11.53, 0.00, 12.52, 0.000, 0.000, 0.000, 09:24:30.217, 7
181, 12.81, 12.28, 0.00, 12.97, 0.000, 0.000, 0.000, 09:24:30.243, 7
182, 15.36, 12.31, 0.00, 18.85, 0.000, 0.000, 0.000, 09:24:30.243, 7
183, 20.96, 13.99, 0.00, 22.51, 0.000, 0.000, 0.000, 09:24:30.243, 7
184, 13.25, 11.38, 0.00, 13.07, 0.000, 0.000, 0.000, 09:24:30.243, 7
185, 11.46, 13.59, 0.00, 15.54, 0.000, 0.000, 0.000, 09:24:30.244, 7
186, 18.24, 19.75, 0.00, 21.98, 0.000, 0.000, 0.000, 09:24:30.244, 7
187, 18.34, 16.76, 0.00, 20.66, 0.000, 0.000, 0.000, 09:24:30.264, 7
188, 11.80, 10.64, 0.00, 12.18, 0.000, 0.000, 0.000, 09:24:30.264, 7
189, 13.70, 15.98, 0.00, 19.51, 0.000, 0.000, 0.000, 09:24:30.287, 7
190, 17.64, 18.72, 0.00, 22.69, 0.000, 0.000, 0.000, 09:24:30.287, 7
191, 18.23, 13.83, 0.00, 19.60, 0.000, 0.000, 0.000, 09:24:30.288, 7
192, 11.34, 12.14, 0.00, 12.42, 0.000, 0.000, 0.000, 09:24:30.288, 7
193, 11.03, 8.82, 0.00, 15.21, 0.000, 0.000, 0.000, 09:24:30.288, 7
194, 13.41, 14.58, 0.00, 15.42, 0.000, 0.000, 0.000, 09:24:30.288, 7
195, 16.31, 16.76, 0.00, 18.54, 0.000, 0.000, 0.000, 09:24:30.289, 7
196, 11.81, 11.11, 0.00, 13.43, 0.000, 0.000, 0.000, 09:24:30.289, 7
197, 15.50, 8.13, 0.00, 13.63, 0.000, 0.000, 0.000, 09:24:30.306, 7
198, 15.94, 16.46, 0.00, 17.20, 0.000, 0.000, 0.000, 09:24:30.306, 7
199, 13.75, 14.63, 0.00, 17.72, 0.000, 0.000, 0.000, 09:24:30.317, 7
200, 14.14, 6.88, 0.00, 13.43, 0.000, 0.000, 0.000, 09:24:30.317, 7
0, 11.49, 10.63, 0.00, 12.48, 0.000, 0.000, 0.000, 09:24:30.333, 7
1, 17.18, 16.73, 0.00, 20.81, 0.000, 0.000, 0.000, 09:24:30.334, 7
2, 13.88, 12.80, 0.00, 13.13, 0.000, 0.000, 0.000, 09:24:30.334, 7
3, 12.90, 10.63, 0.00, 13.46, 0.000, 0.000, 0.000, 09:24:30.363, 7
4, 13.79, 12.24, 0.00, 11.63, 0.000, 0.000, 0.000, 09:24:30.364, 7
5, 17.77, 14.97, 0.00, 20.29, 0.000, 0.000, 0.000, 09:24:30.364, 7
6, 17.29, 19.41, 0.00, 18.86, 0.000, 0.000, 0.000, 09:24:30.364, 7
7, 14.47, 12.13, 0.00, 12.94, 0.000, 0.000, 0.000, 09:24:30.364, 7
8, 14.73, 8.20, 0.00, 16.54, 0.000, 0.000, 0.000, 09:24:30.365, 7
9, 16.08, 21.02, 0.00, 18.34, 0.000, 0.000, 0.000, 09:24:30.366, 7
10, 17.50, 16.48, 0.00, 18.75, 0.000, 0.000, 0.000, 09:24:30.367, 7
11, 13.14, 9.27, 0.00, 14.57, 0.000, 0.000, 0.000, 09:24:30.377, 7
12, 8.75, 8.96, 0.00, 16.58, 0.000, 0.000, 0.000, 09:24:30.377, 7
13, 16.81, 19.48, 0.00, 20.68, 0.000, 0.000, 0.000, 09:24:30.406, 7
14, 13.98, 12.96, 0.00, 16.59, 0.000, 0.000, 0.000, 09:24:30.406, 7
15, 10.97, 11.57, 0.00, 7.35, 0.000, 0.000, 0.000, 09:24:30.407, 7
16, 9.59, 12.13, 0.00, 16.83, 0.000, 0.000, 0.000, 09:24:30.407, 7
17, 17.63, 13.24, 0.00, 13.44, 0.000, 0.000, 0.000, 09:24:30.408, 7
18, 19.27, 13.63, 0.00, 18.38, 0.000, 0.000, 0.000, 09:24:30.408, 7
19, 10.98, 6.66, 0.00, 8.97, 0.000, 0.000, 0.000, 09:24:30.421, 7
20, 10.57, 11.51, 0.00, 9.38, 0.000, 0.000, 0.000, 09:24:30.421, 7
21, 17.98, 17.00, 0.00, 22.30, 0.000, 0.000, 0.000, 09:24:30.438, 7
22, 15.53, 14.45, 0.00, 19.77, 0.000, 0.000, 0.000, 09:24:30.438, 7
23, 10.73, 6.79, 0.00, 12.81, 0.000, 0.000, 0.000, 09:24:30.452, 7
24, 13.68, 12.94, 0.00, 14.68, 0.000, 0.000, 0.000, 09:24:30.452, 7
25, 19.13, 18.72, 0.00, 21.42, 0.000, 0.000, 0.000, 09:24:30.453, 7
26, 13.85, 8.65, 0.00, 18.82, 0.000, 0.000, 0.000, 09:24:30.453, 7
27, 9.02, 9.53, 0.00, 14.13, 0.000, 0.000, 0.000, 09:24:30.467, 7
28, 12.79, 11.53, 0.00, 16.16, 0.000, 0.000, 0.000, 09:24:30.467, 7
29, 15.40, 14.67, 0.00, 18.19, 0.000, 0.000, 0.000, 09:24:30.483, 7
30, 16.37, 16.68, 0.00, 19.17, 0.000, 0.000, 0.000, 09:24:30.483, 7
31, 12.72, 12.74, 0.00, 15.62, 0.000, 0.000, 0.000, 09:24:30.484, 7
32, 9.65, 9.93, 0.00, 9.16, 0.000, 0.000, 0.000, 09:24:30.484, 7
33, 20.76, 17.41, 0.00, 19.94, 0.000, 0.000, 0.000, 09:24:30.497, 7
34, 15.41, 17.63, 0.00, 16.94, 0.000, 0.000, 0.000, 09:24:30.497, 7
35, 10.55, 9.01, 0.00, 10.02, 0.000, 0.000, 0.000, 09:24:30.526, 7
36, 14.99, 10.95, 0.00, 16.77, 0.000, 0.000, 0.000, 09:24:30.527, 7
37, 17.15, 15.80, 0.00, 19.90, 0.000, 0.000, 0.000, 09:24:30.527, 7
38, 14.39, 9.79, 0.00, 16.20, 0.000, 0.000, 0.000, 09:24:30.528, 7
39, 14.88, 11.35, 0.00, 12.70, 0.000, 0.000, 0.000, 09:24:30.529, 7
40, 15.08, 13.01, 0.00, 11.51, 0.000, 0.000, 0.000, 09:24:30.529, 7
41, 17.59, 14.39, 0.00, 16.97, 0.000, 0.000, 0.000, 09:24:30.535, 7
42, 16.03, 15.38, 0.00, 21.59, 0.000, 0.000, 0.000, 09:24:30.536, 7
43, 16.14, 12.18, 0.00, 13.13, 0.000, 0.000, 0.000, 09:24:30.541, 7
44, 13.82, 9.03, 0.00, 10.62, 0.000, 0.000, 0.000, 09:24:30.541, 7
45, 16.32, 17.31, 0.00, 18.98, 0.000, 0.000, 0.000, 09:24:30.557, 7
46, 15.51, 14.51, 0.00, 19.60, 0.000, 0.000, 0.000, 09:24:30.557, 7
47, 12.85, 9.39, 0.00, 13.49, 0.000, 0.000, 0.000, 09:24:30.558, 7
48, 13.27, 14.03, 0.00, 12.77, 0.000, 0.000, 0.000, 09:24:30.558, 7
49, 12.81, 17.81, 0.00, 19.05, 0.000, 0.000, 0.000, 09:24:30.572, 7
50, 13.94, 13.33, 0.00, 18.52, 0.000, 0.000, 0.000, 09:24:30.572, 7
51, 9.32, 10.83, 0.00, 15.21, 0.000, 0.000, 0.000, 09:24:30.587, 7
52, 10.29, 11.73, 0.00, 13.58, 0.000, 0.000, 0.000, 09:24:30.588, 7
53, 19.11, 16.12, 0.00, 17.71, 0.000, 0.000, 0.000, 09:24:30.588, 7
54, 17.56, 15.54, 0.00, 19.75, 0.000, 0.000, 0.000, 09:24:30.588, 7
55, 16.87, 14.04, 0.00, 17.96, 0.000, 0.000, 0.000, 09:24:30.603, 7
56, 14.72, 12.49, 0.00, 14.77, 0.000, 0.000, 0.000, 09:24:30.604, 7
57, 17.87, 21.84, 0.00, 21.29, 0.000, 0.000, 0.000, 09:24:30.617, 7
58, 14.97, 16.22, 0.00, 19.55, 0.000, 0.000, 0.000, 09:24:30.617, 7
59, 8.99, 7.75, 0.00, 12.82, 0.000, 0.000, 0.000, 09:24:30.618, 7
60, 14.17, 17.22, 0.00, 15.76, 0.000, 0.000, 0.000, 09:24:30.618, 7
61, 17.04, 16.04, 0.00, 19.35, 0.000, 0.000, 0.000, 09:24:30.647, 7
62, 14.30, 16.85, 0.00, 18.28, 0.000, 0.000, 0.000, 09:24:30.647, 7
63, 15.26, 13.27, 0.00, 10.75, 0.000, 0.000, 0.000, 09:24:30.647, 7
64, 11.89, 8.88, 0.00, 15.73, 0.000, 0.000, 0.000, 09:24:30.647, 7
65, 14.48, 13.23, 0.00, 15.64, 0.000, 0.000, 0.000, 09:24:30.649, 7
66, 18.12, 15.14, 0.00, 18.13, 0.000, 0.000, 0.000, 09:24:30.650, 7
67, 11.03, 11.28, 0.00, 16.58, 0.000, 0.000, 0.000, 09:24:30.677, 7
68, 9.56, 9.66, 0.00, 8.36, 0.000, 0.000, 0.000, 09:24:30.677, 7
69, 17.94, 17.89, 0.00, 21.52, 0.000, 0.000, 0.000, 09:24:30.677, 7
70, 15.24, 11.34, 0.00, 19.12, 0.000, 0.000, 0.000, 09:24:30.677, 7
71, 10.27, 6.00, 0.00, 9.76, 0.000, 0.000, 0.000, 09:24:30.679, 7
72, 10.14, 13.70, 0.00, 15.03, 0.000, 0.000, 0.000, 09:24:30.680, 7
73, 19.87, 16.91, 0.00, 20.06, 0.000, 0.000, 0.000, 09:24:30.692, 7
74, 11.00, 10.98, 0.00, 15.88, 0.000, 0.000, 0.000, 09:24:30.692, 7
75, 14.56, 12.90, 0.00, 17.11, 0.000, 0.000, 0.000, 09:24:30.706, 7
76, 15.81, 14.30, 0.00, 18.34, 0.000, 0.000, 0.000, 09:24:30.707, 7
77, 16.03, 14.88, 0.00, 17.14, 0.000, 0.000, 0.000, 09:24:30.722, 7
78, 15.59, 17.69, 0.00, 14.53, 0.000, 0.000, 0.000, 09:24:30.722, 7
79, 13.79, 10.60, 0.00, 15.19, 0.000, 0.000, 0.000, 09:24:30.722, 7
80, 14.61, 10.43, 0.00, 7.48, 0.000, 0.000, 0.000, 09:24:30.723, 7
81, 17.03, 15.95, 0.00, 23.36, 0.000, 0.000, 0.000, 09:24:30.737, 7
82, 14.67, 16.98, 0.00, 20.12, 0.000, 0.000, 0.000, 09:24:30.738, 7
83, 11.07, 6.40, 0.00, 11.13, 0.000, 0.000, 0.000, 09:24:30.738, 7
84, 13.32, 13.13, 0.00, 11.94, 0.000, 0.000, 0.000, 09:24:30.739, 7
85, 16.89, 17.97, 0.00, 16.53, 0.000, 0.000, 0.000, 09:24:30.770, 7
86, 14.50, 11.20, 0.00, 16.57, 0.000, 0.000, 0.000, 09:24:30.771, 7
87, 13.21, 12.18, 0.00, 15.10, 0.000, 0.000, 0.000, 09:24:30.772, 7
88, 13.78, 15.16, 0.00, 16.29, 0.000, 0.000, 0.000, 09:24:30.772, 7
89, 16.06, 12.55, 0.00, 18.68, 0.000, 0.000, 0.000, 09:24:30.773, 7
90, 16.25, 17.39, 0.00, 17.95, 0.000, 0.000, 0.000, 09:24:30.773, 7
91, 11.30, 10.37, 0.00, 14.61, 0.000, 0.000, 0.000, 09:24:30.797, 7
92, 13.32, 8.37, 0.00, 14.21, 0.000, 0.000, 0.000, 09:24:30.797, 7
93, 18.12, 16.80, 0.00, 20.05, 0.000, 0.000, 0.000, 09:24:30.797, 7
94, 12.44, 12.40, 0.00, 19.38, 0.000, 0.000, 0.000, 09:24:30.798, 7
95, 10.14, 7.12, 0.00, 10.09, 0.000, 0.000, 0.000, 09:24:30.799, 7
96, 15.41, 11.18, 0.00, 15.16, 0.000, 0.000, 0.000, 09:24:30.802, 7
97, 18.59, 17.77, 0.00, 22.94, 0.000, 0.000, 0.000, 09:24:30.813, 7
98, 18.90, 14.55, 0.00, 16.00, 0.000, 0.000, 0.000, 09:24:30.814, 7
99, 13.32, 10.42, 0.00, 12.66, 0.000, 0.000, 0.000, 09:24:30.841, 7
100, 15.12, 9.24, 0.00, 18.07, 0.000, 0.000, 0.000, 09:24:30.841, 7
101, 16.02, 14.92, 0.00, 16.89, 0.000, 0.000, 0.000, 09:24:30.842, 7
102, 14.90, 13.81, 0.00, 16.80, 0.000, 0.000, 0.000, 09:24:30.842, 7
103, 14.08, 11.37, 0.00, 13.88, 0.000, 0.000, 0.000, 09:24:30.842, 7
104, 11.89, 12.28, 0.00, 12.57, 0.000, 0.000, 0.000, 09:24:30.842, 7
105, 17.51, 17.66, 0.00, 20.39, 0.000, 0.000, 0.000, 09:24:30.843, 7
106, 12.70, 16.81, 0.00, 14.94, 0.000, 0.000, 0.000, 09:24:30.843, 7
107, 13.71, 8.20, 0.00, 9.41, 0.000, 0.000, 0.000, 09:24:30.856, 7
108, 15.10, 9.50, 0.00, 15.57, 0.000, 0.000, 0.000, 09:24:30.856, 7
109, 19.45, 14.07, 0.00, 21.30, 0.000, 0.000, 0.000, 09:24:30.871, 7
110, 14.50, 12.48, 0.00, 14.06, 0.000, 0.000, 0.000, 09:24:30.871, 7
111, 13.43, 10.58, 0.00, 12.80, 0.000, 0.000, 0.000, 09:24:30.886, 7
112, 14.55, 12.08, 0.00, 19.12, 0.000, 0.000, 0.000, 09:24:30.886, 7
113, 19.48, 17.93, 0.00, 19.41, 0.000, 0.000, 0.000, 09:24:30.887, 7
114, 15.05, 12.10, 0.00, 15.84, 0.000, 0.000, 0.000, 09:24:30.887, 7
115, 11.81, 12.77, 0.00, 11.08, 0.000, 0.000, 0.000, 09:24:30.916, 7
116, 11.95, 11.53, 0.00, 13.18, 0.000, 0.000, 0.000, 09:24:30.917, 7
117, 17.39, 15.74, 0.00, 23.00, 0.000, 0.000, 0.000, 09:24:30.917, 7
118, 17.57, 16.21, 0.00, 13.42, 0.000, 0.000, 0.000, 09:24:30.917, 7
119, 9.07, 8.27, 0.00, 8.26, 0.000, 0.000, 0.000, 09:24:30.924, 7
120, 13.02, 13.00, 0.00, 12.01, 0.000, 0.000, 0.000, 09:24:30.924, 7
121, 16.72, 15.50, 0.00, 21.20, 0.000, 0.000, 0.000, 09:24:30.933, 7
122, 10.71, 14.23, 0.00, 16.18, 0.000, 0.000, 0.000, 09:24:30.933, 7
123, 11.35, 10.50, 0.00, 11.96, 0.000, 0.000, 0.000, 09:24:30.963, 7
124, 12.78, 14.81, 0.00, 19.79, 0.000, 0.000, 0.000, 09:24:30.963, 7
125, 16.73, 18.13, 0.00, 18.65, 0.000, 0.000, 0.000, 09:24:30.964, 7
126, 14.77, 13.87, 0.00, 19.05, 0.000, 0.000, 0.000, 09:24:30.965, 7
127, 11.93, 11.08, 0.00, 12.92, 0.000, 0.000, 0.000, 09:24:30.966, 7
128, 14.76, 10.66, 0.00, 11.01, 0.000, 0.000, 0.000, 09:24:30.967, 7
129, 16.29, 17.96, 0.00, 19.82, 0.000, 0.000, 0.000, 09:24:30.967, 7
130, 17.90, 16.71, 0.00, 19.19, 0.000, 0.000, 0.000, 09:24:30.967, 7
131, 16.39, 6.28, 0.00, 12.46, 0.000, 0.000, 0.000, 09:24:30.977, 7
132, 17.25, 11.64, 0.00, 17.46, 0.000, 0.000, 0.000, 09:24:30.977, 7
133, 17.63, 16.97, 0.00, 21.99, 0.000, 0.000, 0.000, 09:24:31.007, 7
134, 11.88, 6.74, 0.00, 14.57, 0.000, 0.000, 0.000, 09:24:31.007, 7
135, 12.48, 13.29, 0.00, 15.64, 0.000, 0.000, 0.000, 09:24:31.007, 7
136, 16.02, 13.82, 0.00, 12.95, 0.000, 0.000, 0.000, 09:24:31.008, 7
137, 18.63, 18.07, 0.00, 18.62, 0.000, 0.000, 0.000, 09:24:31.008, 7
138, 13.27, 15.00, 0.00, 16.89, 0.000, 0.000, 0.000, 09:24:31.008, 7
139, 9.80, 10.51, 0.00, 15.07, 0.000, 0.000, 0.000, 09:24:31.037, 7
140, 9.25, 10.88, 0.00, 9.87, 0.000, 0.000, 0.000, 09:24:31.037, 7
141, 14.80, 15.80, 0.00, 21.36, 0.000, 0.000, 0.000, 09:24:31.038, 7
142, 12.24, 14.48, 0.00, 14.92, 0.000, 0.000, 0.000, 09:24:31.039, 7
143, 11.82, 7.87, 0.00, 7.58, 0.000, 0.000, 0.000, 09:24:31.039, 7
144, 17.43, 16.20, 0.00, 17.98, 0.000, 0.000, 0.000, 09:24:31.039, 7
145, 22.06, 20.99, 0.00, 21.43, 0.000, 0.000, 0.000, 09:24:31.052, 7
146, 11.12, 9.77, 0.00, 14.95, 0.000, 0.000, 0.000, 09:24:31.053, 7
147, 13.30, 10.32, 0.00, 16.35, 0.000, 0.000, 0.000, 09:24:31.083, 7
148, 15.76, 15.81, 0.00, 22.55, 0.000, 0.000, 0.000, 09:24:31.084, 7
149, 18.20, 20.14, 0.00, 22.06, 0.000, 0.000, 0.000, 09:24:31.086, 7
150, 12.64, 17.68, 0.00, 14.47, 0.000, 0.000, 0.000, 09:24:31.087, 7
151, 9.68, 11.21, 0.00, 14.75, 0.000, 0.000, 0.000, 09:24:31.087, 7
152, 15.31, 10.63, 0.00, 12.38, 0.000, 0.000, 0.000, 09:24:31.087, 7
153, 13.09, 13.30, 0.00, 21.98, 0.000, 0.000, 0.000, 09:24:31.088, 7
154, 13.73, 14.01, 0.00, 15.66, 0.000, 0.000, 0.000, 09:24:31.088, 7
155, 11.05, 8.51, 0.00, 9.88, 0.000, 0.000, 0.000, 09:24:31.112, 7
156, 14.31, 16.63, 0.00, 15.25, 0.000, 0.000, 0.000, 09:24:31.113, 7
157, 16.13, 18.45, 0.00, 21.80, 0.000, 0.000, 0.000, 09:24:31.114, 7
158, 10.54, 9.90, 0.00, 12.47, 0.000, 0.000, 0.000, 09:24:31.114, 7
159, 11.66, 8.63, 0.00, 16.51, 0.000, 0.000, 0.000, 09:24:31.127, 7
160, 13.94, 14.22, 0.00, 19.23, 0.000, 0.000, 0.000, 09:24:31.127, 7
161, 18.42, 19.83, 0.00, 18.42, 0.000, 0.000, 0.000, 09:24:31.128, 7
162, 16.56, 13.93, 0.00, 14.61, 0.000, 0.000, 0.000, 09:24:31.128, 7
163, 10.92, 11.04, 0.00, 15.68, 0.000, 0.000, 0.000, 09:24:31.142, 7
164, 12.51, 9.96, 0.00, 15.89, 0.000, 0.000, 0.000, 09:24:31.142, 7
165, 17.66, 16.20, 0.00, 22.49, 0.000, 0.000, 0.000, 09:24:31.156, 7
166, 15.46, 12.53, 0.00, 15.76, 0.000, 0.000, 0.000, 09:24:31.158, 7
167, 12.35, 4.65, 0.00, 8.00, 0.000, 0.000, 0.000, 09:24:31.158, 7
168, 13.70, 13.64, 0.00, 18.55, 0.000, 0.000, 0.000, 09:24:31.158, 7
169, 21.96, 19.05, 0.00, 20.87, 0.000, 0.000, 0.000, 09:24:31.172, 7
170, 13.27, 7.28, 0.00, 14.51, 0.000, 0.000, 0.000, 09:24:31.172, 7
171, 10.86, 11.29, 0.00, 12.46, 0.000, 0.000, 0.000, 09:24:31.186, 7
172, 13.36, 11.67, 0.00, 19.23, 0.000, 0.000, 0.000, 09:24:31.187, 7
173, 16.95, 16.19, 0.00, 19.72, 0.000, 0.000, 0.000, 09:24:31.202, 7
174, 12.68, 12.19, 0.00, 14.42, 0.000, 0.000, 0.000, 09:24:31.202, 7
175, 10.38, 8.17, 0.00, 13.03, 0.000, 0.000, 0.000, 09:24:31.202, 7
176, 14.74, 9.43, 0.00, 14.78, 0.000, 0.000, 0.000, 09:24:31.202, 7
177, 14.00, 16.69, 0.00, 17.89, 0.000, 0.000, 0.000, 09:24:31.232, 7
178, 14.62, 12.21, 0.00, 13.91, 0.000, 0.000, 0.000, 09:24:31.233, 7
179, 10.42, 8.61, 0.00, 7.03, 0.000, 0.000, 0.000, 09:24:31.233, 7
180, 15.16, 17.19, 0.00, 18.83, 0.000, 0.000, 0.000, 09:24:31.233, 7
181, 17.54, 16.45, 0.00, 19.33, 0.000, 0.000, 0.000, 09:24:31.233, 7
182, 11.71, 10.00, 0.00, 15.01, 0.000, 0.000, 0.000, 09:24:31.233, 7
183, 15.00, 11.21, 0.00, 11.50, 0.000, 0.000, 0.000, 09:24:31.234, 7
184, 12.72, 14.49, 0.00, 18.85, 0.000, 0.000, 0.000, 09:24:31.234, 7
185, 20.77, 19.93, 0.00, 18.62, 0.000, 0.000, 0.000, 09:24:31.250, 7
186, 20.72, 15.59, 0.00, 15.95, 0.000, 0.000, 0.000, 09:24:31.250, 7
187, 10.80, 13.52, 0.00, 10.41, 0.000, 0.000, 0.000, 09:24:31.277, 7
188, 16.42, 12.58, 0.00, 14.67, 0.000, 0.000, 0.000, 09:24:31.277, 7
189, 19.85, 16.68, 0.00, 19.00, 0.000, 0.000, 0.000, 09:24:31.278, 7
190, 8.66, 12.40, 0.00, 15.12, 0.000, 0.000, 0.000, 09:24:31.279, 7
191, 12.34, 9.13, 0.00, 10.17, 0.000, 0.000, 0.000, 09:24:31.279, 7
192, 16.55, 12.76, 0.00, 16.20, 0.000, 0.000, 0.000, 09:24:31.280, 7
193, 14.75, 15.09, 0.00, 18.03, 0.000, 0.000, 0.000, 09:24:31.292, 7
194, 11.74, 13.02, 0.00, 15.82, 0.000, 0.000, 0.000, 09:24:31.292, 7
195, 12.81, 8.49, 0.00, 14.04, 0.000, 0.000, 0.000, 09:24:31.323, 7
196, 13.53, 15.51, 0.00, 17.41, 0.000, 0.000, 0.000, 09:24:31.323, 7
197, 20.03, 17.03, 0.00, 21.33, 0.000, 0.000, 0.000, 09:24:31.323, 7
198, 19.60, 11.19, 0.00, 15.44, 0.000, 0.000, 0.000, 09:24:31.323, 7
199, 12.46, 11.88, 0.00, 11.83, 0.000, 0.000, 0.000, 09:24:31.324, 7
200, 12.18, 8.68, 0.00, 12.72, 0.000, 0.000, 0.000, 09:24:31.324, 7
0, 19.19, 19.31, 0.00, 21.07, 0.000, 0.000, 0.000, 09:24:31.324, 7
1, 16.88, 16.06, 0.00, 20.42, 0.000, 0.000, 0.000, 09:24:31.352, 7
2, 12.70, 7.23, 0.00, 8.46, 0.000, 0.000, 0.000, 09:24:31.352, 7
3, 11.34, 12.03, 0.00, 16.43, 0.000, 0.000, 0.000, 09:24:31.352, 7
4, 15.63, 15.23, 0.00, 23.64, 0.000, 0.000, 0.000, 09:24:31.352, 7
5, 13.60, 12.93, 0.00, 14.41, 0.000, 0.000, 0.000, 09:24:31.353, 7
6, 13.82, 13.20, 0.00, 7.85, 0.000, 0.000, 0.000, 09:24:31.354, 7
7, 12.29, 16.38, 0.00, 17.41, 0.000, 0.000, 0.000, 09:24:31.368, 7
8, 15.23, 15.81, 0.00, 19.80, 0.000, 0.000, 0.000, 09:24:31.369, 7
9, 17.63, 13.82, 0.00, 15.57, 0.000, 0.000, 0.000, 09:24:31.402, 7
10, 11.80, 12.03, 0.00, 18.21, 0.000, 0.000, 0.000, 09:24:31.402, 7
11, 16.67, 12.62, 0.00, 15.07, 0.000, 0.000, 0.000, 09:24:31.402, 7
12, 16.34, 15.84, 0.00, 18.91, 0.000, 0.000, 0.000, 09:24:31.402, 7
13, 16.37, 15.92, 0.00, 14.50, 0.000, 0.000, 0.000, 09:24:31.403, 7
14, 10.39, 6.88, 0.00, 9.72, 0.000, 0.000, 0.000, 09:24:31.403, 7
15, 16.17, 17.53, 0.00, 17.46, 0.000, 0.000, 0.000, 09:24:31.403, 7
16, 16.00, 16.02, 0.00, 17.25, 0.000, 0.000, 0.000, 09:24:31.403, 7
17, 16.94, 11.76, 0.00, 20.10, 0.000, 0.000, 0.000, 09:24:31.414, 7
18, 5.79, 6.74, 0.00, 11.72, 0.000, 0.000, 0.000, 09:24:31.414, 7
19, 14.94, 16.44, 0.00, 17.21, 0.000, 0.000, 0.000, 09:24:31.427, 7
20, 18.11, 16.78, 0.00, 16.93, 0.000, 0.000, 0.000, 09:24:31.427, 7
21, 11.18, 12.15, 0.00, 14.73, 0.000, 0.000, 0.000, 09:24:31.441, 7
22, 13.23, 7.62, 0.00, 14.63, 0.000, 0.000, 0.000, 09:24:31.442, 7
23, 12.94, 10.12, 0.00, 14.94, 0.000, 0.000, 0.000, 09:24:31.442, 7
24, 18.44, 18.51, 0.00, 20.54, 0.000, 0.000, 0.000, 09:24:31.442, 7
25, 12.17, 9.88, 0.00, 15.47, 0.000, 0.000, 0.000, 09:24:31.457, 7
26, 12.53, 8.86, 0.00, 13.56, 0.000, 0.000, 0.000, 09:24:31.457, 7
27, 15.46, 18.34, 0.00, 17.13, 0.000, 0.000, 0.000, 09:24:31.472, 7
28, 14.75, 16.30, 0.00, 17.99, 0.000, 0.000, 0.000, 09:24:31.472, 7
29, 12.95, 11.26, 0.00, 13.16, 0.000, 0.000, 0.000, 09:24:31.473, 7
30, 15.22, 7.35, 0.00, 15.52, 0.000, 0.000, 0.000, 09:24:31.473, 7
31, 13.82, 15.28, 0.00, 20.02, 0.000, 0.000, 0.000, 09:24:31.487, 7
32, 15.02, 17.64, 0.00, 14.72, 0.000, 0.000, 0.000, 09:24:31.487, 7
33, 15.07, 16.41, 0.00, 18.14, 0.000, 0.000, 0.000, 09:24:31.517, 7
34, 10.64, 9.41, 0.00, 16.10, 0.000, 0.000, 0.000, 09:24:31.517, 7
35, 14.91, 14.41, 0.00, 17.62, 0.000, 0.000, 0.000, 09:24:31.517, 7
36, 17.61, 19.38, 0.00, 20.83, 0.000, 0.000, 0.000, 09:24:31.517, 7
37, 13.73, 11.27, 0.00, 10.87, 0.000, 0.000, 0.000, 09:24:31.517, 7
38, 13.36, 9.67, 0.00, 12.15, 0.000, 0.000, 0.000, 09:24:31.518, 7
39, 14.79, 16.79, 0.00, 17.12, 0.000, 0.000, 0.000, 09:24:31.518, 7
40, 17.76, 17.23, 0.00, 19.97, 0.000, 0.000, 0.000, 09:24:31.518, 7
41, 16.08, 11.90, 0.00, 11.88, 0.000, 0.000, 0.000, 09:24:31.533, 7
42, 11.85, 10.72, 0.00, 14.59, 0.000, 0.000, 0.000, 09:24:31.533, 7
43, 13.54, 10.58, 0.00, 17.63, 0.000, 0.000, 0.000, 09:24:31.562, 7
44, 17.54, 16.54, 0.00, 19.13, 0.000, 0.000, 0.000, 09:24:31.563, 7
45, 13.76, 12.75, 0.00, 12.73, 0.000, 0.000, 0.000, 09:24:31.563, 7
46, 11.84, 10.75, 0.00, 14.30, 0.000, 0.000, 0.000, 09:24:31.563, 7
47, 15.34, 11.41, 0.00, 13.31, 0.000, 0.000, 0.000, 09:24:31.565, 7
48, 16.57, 17.20, 0.00, 21.75, 0.000, 0.000, 0.000, 09:24:31.566, 7
49, 13.72, 10.72, 0.00, 17.70, 0.000, 0.000, 0.000, 09:24:31.591, 7
50, 15.69, 8.43, 0.00, 11.98, 0.000, 0.000, 0.000, 09:24:31.591, 7
51, 12.88, 14.27, 0.00, 22.65, 0.000, 0.000, 0.000, 09:24:31.592, 7
52, 17.92, 16.76, 0.00, 16.47, 0.000, 0.000, 0.000, 09:24:31.592, 7
53, 13.43, 12.52, 0.00, 14.37, 0.000, 0.000, 0.000, 09:24:31.592, 7
54, 9.49, 8.89, 0.00, 13.97, 0.000, 0.000, 0.000, 09:24:31.592, 7
55, 16.09, 13.60, 0.00, 18.69, 0.000, 0.000, 0.000, 09:24:31.606, 7
56, 17.93, 14.17, 0.00, 13.11, 0.000, 0.000, 0.000, 09:24:31.606, 7
57, 12.96, 12.27, 0.00, 17.50, 0.000, 0.000, 0.000, 09:24:31.636, 7
58, 12.55, 11.60, 0.00, 16.32, 0.000, 0.000, 0.000, 09:24:31.637, 7
59, 13.59, 11.64, 0.00, 17.76, 0.000, 0.000, 0.000, 09:24:31.637, 7
60, 18.67, 19.00, 0.00, 20.33, 0.000, 0.000, 0.000, 09:24:31.637, 7
61, 15.74, 12.35, 0.00, 17.96, 0.000, 0.000, 0.000, 09:24:31.651, 7
62, 11.28, 9.68, 0.00, 9.98, 0.000, 0.000, 0.000, 09:24:31.651, 7
63, 16.23, 15.05, 0.00, 18.12, 0.000, 0.000, 0.000, 09:24:31.652, 7
64, 16.61, 17.45, 0.00, 19.31, 0.000, 0.000, 0.000, 09:24:31.652, 7
65, 12.95, 9.92, 0.00, 11.67, 0.000, 0.000, 0.000, 09:24:31.666, 7
66, 14.78, 13.58, 0.00, 13.81, 0.000, 0.000, 0.000, 09:24:31.666, 7
67, 14.68, 14.37, 0.00, 16.17, 0.000, 0.000, 0.000, 09:24:31.667, 7
68, 17.86, 15.98, 0.00, 17.14, 0.000, 0.000, 0.000, 09:24:31.667, 7
69, 15.01, 12.45, 0.00, 17.57, 0.000, 0.000, 0.000, 09:24:31.683, 7
70, 14.17, 11.98, 0.00, 15.41, 0.000, 0.000, 0.000, 09:24:31.684, 7
71, 13.78, 15.43, 0.00, 19.13, 0.000, 0.000, 0.000, 09:24:31.685, 7
72, 15.79, 18.51, 0.00, 21.94, 0.000, 0.000, 0.000, 09:24:31.685, 7
73, 13.18, 14.62, 0.00, 15.55, 0.000, 0.000, 0.000, 09:24:31.713, 7
74, 10.37, 10.58, 0.00, 9.89, 0.000, 0.000, 0.000, 09:24:31.713, 7
75, 16.26, 15.48, 0.00, 19.97, 0.000, 0.000, 0.000, 09:24:31.714, 7
76, 16.42, 15.04, 0.00, 17.90, 0.000, 0.000, 0.000, 09:24:31.714, 7
77, 15.14, 10.08, 0.00, 12.38, 0.000, 0.000, 0.000, 09:24:31.714, 7
78, 15.23, 8.14, 0.00, 13.88, 0.000, 0.000, 0.000, 09:24:31.714, 7
79, 16.18, 15.90, 0.00, 17.99, 0.000, 0.000, 0.000, 09:24:31.727, 7
80, 17.18, 16.70, 0.00, 14.12, 0.000, 0.000, 0.000, 09:24:31.727, 7
81, 15.72, 12.76, 0.00, 15.82, 0.000, 0.000, 0.000, 09:24:31.757, 7
82, 11.11, 9.89, 0.00, 11.24, 0.000, 0.000, 0.000, 09:24:31.757, 7
83, 16.29, 16.72, 0.00, 14.66, 0.000, 0.000, 0.000, 09:24:31.757, 7
84, 16.20, 12.86, 0.00, 19.93, 0.000, 0.000, 0.000, 09:24:31.757, 7
85, 14.56, 11.32, 0.00, 10.42, 0.000, 0.000, 0.000, 09:24:31.758, 7
86, 10.57, 8.54, 0.00, 9.09, 0.000, 0.000, 0.000, 09:24:31.759, 7
87, 17.98, 19.95, 0.00, 21.72, 0.000, 0.000, 0.000, 09:24:31.759, 7
88, 16.69, 17.09, 0.00, 23.73, 0.000, 0.000, 0.000, 09:24:31.760, 7
89, 9.70, 12.46, 0.00, 11.88, 0.000, 0.000, 0.000, 09:24:31.787, 7
90, 10.24, 9.21, 0.00, 12.26, 0.000, 0.000, 0.000, 09:24:31.787, 7
91, 15.68, 12.90, 0.00, 16.25, 0.000, 0.000, 0.000, 09:24:31.787, 7
92, 17.33, 13.10, 0.00, 19.26, 0.000, 0.000, 0.000, 09:24:31.787, 7
93, 13.84, 15.11, 0.00, 17.47, 0.000, 0.000, 0.000, 09:24:31.802, 7
94, 15.12, 11.18, 0.00, 14.15, 0.000, 0.000, 0.000, 09:24:31.802, 7
95, 16.59, 16.23, 0.00, 14.35, 0.000, 0.000, 0.000, 09:24:31.802, 7
96, 16.50, 14.21, 0.00, 17.08, 0.000, 0.000, 0.000, 09:24:31.802, 7
97, 13.03, 9.80, 0.00, 15.72, 0.000, 0.000, 0.000, 09:24:31.832, 7
98, 12.02, 11.17, 0.00, 15.22, 0.000, 0.000, 0.000, 09:24:31.832, 7
99, 13.59, 17.28, 0.00, 18.25, 0.000, 0.000, 0.000, 09:24:31.832, 7
100, 18.88, 15.48, 0.00, 18.20, 0.000, 0.000, 0.000, 09:24:31.832, 7
101, 10.84, 11.21, 0.00, 12.81, 0.000, 0.000, 0.000, 09:24:31.833, 7
102, 12.31, 9.60, 0.00, 12.67, 0.000, 0.000, 0.000, 09:24:31.833, 7
103, 16.77, 16.37, 0.00, 16.86, 0.000, 0.000, 0.000, 09:24:31.847, 7
104, 17.64, 14.68, 0.00, 18.30, 0.000, 0.000, 0.000, 09:24:31.848, 7
105, 14.95, 14.31, 0.00, 14.74, 0.000, 0.000, 0.000, 09:24:31.877, 7
106, 13.98, 10.56, 0.00, 12.70, 0.000, 0.000, 0.000, 09:24:31.877, 7
107, 15.15, 16.19, 0.00, 20.17, 0.000, 0.000, 0.000, 09:24:31.877, 7
108, 14.81, 13.59, 0.00, 17.43, 0.000, 0.000, 0.000, 09:24:31.877, 7
109, 15.46, 10.17, 0.00, 17.59, 0.000, 0.000, 0.000, 09:24:31.879, 7
110, 9.72, 10.27, 0.00, 13.88, 0.000, 0.000, 0.000, 09:24:31.880, 7
111, 15.27, 17.59, 0.00, 20.15, 0.000, 0.000, 0.000, 09:24:31.880, 7
112, 20.64, 15.14, 0.00, 21.67, 0.000, 0.000, 0.000, 09:24:31.880, 7
113, 12.74, 10.27, 0.00, 10.61, 0.000, 0.000, 0.000, 09:24:31.892, 7
114, 14.11, 7.98, 0.00, 11.02, 0.000, 0.000, 0.000, 09:24:31.892, 7
115, 16.92, 16.94, 0.00, 21.05, 0.000, 0.000, 0.000, 09:24:31.906, 7
116, 14.24, 16.25, 0.00, 16.78, 0.000, 0.000, 0.000, 09:24:31.907, 7
117, 9.07, 11.96, 0.00, 14.47, 0.000, 0.000, 0.000, 09:24:31.921, 7
118, 13.28, 7.36, 0.00, 13.41, 0.000, 0.000, 0.000, 09:24:31.922, 7
119, 14.83, 12.52, 0.00, 20.09, 0.000, 0.000, 0.000, 09:24:31.922, 7
120, 16.80, 15.30, 0.00, 19.14, 0.000, 0.000, 0.000, 09:24:31.922, 7
121, 13.80, 12.72, 0.00, 15.66, 0.000, 0.000, 0.000, 09:24:31.943, 7
122, 8.12, 8.02, 0.00, 10.79, 0.000, 0.000, 0.000, 09:24:31.944, 7
123, 15.67, 15.66, 0.00, 22.46, 0.000, 0.000, 0.000, 09:24:31.953, 7
124, 17.54, 13.87, 0.00, 19.31, 0.000, 0.000, 0.000, 09:24:31.953, 7
125, 9.62, 9.00, 0.00, 10.40, 0.000, 0.000, 0.000, 09:24:31.954, 7
126, 11.52, 14.25, 0.00, 10.11, 0.000, 0.000, 0.000, 09:24:31.954, 7
127, 18.68, 19.45, 0.00, 21.07, 0.000, 0.000, 0.000, 09:24:31.968, 7
128, 18.19, 12.85, 0.00, 16.36, 0.000, 0.000, 0.000, 09:24:31.969, 7
129, 14.10, 14.57, 0.00, 14.30, 0.000, 0.000, 0.000, 09:24:31.987, 7
130, 13.65, 11.18, 0.00, 19.46, 0.000, 0.000, 0.000, 09:24:31.987, 7
131, 13.59, 11.22, 0.00, 16.56, 0.000, 0.000, 0.000, 09:24:31.990, 7
132, 15.40, 16.40, 0.00, 18.04, 0.000, 0.000, 0.000, 09:24:31.990, 7
133, 12.79, 13.15, 0.00, 14.17, 0.000, 0.000, 0.000, 09:24:31.997, 7
134, 9.29, 8.07, 0.00, 9.32, 0.000, 0.000, 0.000, 09:24:31.997, 7
135, 17.69, 17.68, 0.00, 19.54, 0.000, 0.000, 0.000, 09:24:32.026, 7
136, 20.24, 20.36, 0.00, 22.10, 0.000, 0.000, 0.000, 09:24:32.026, 7
137, 12.43, 8.94, 0.00, 10.32, 0.000, 0.000, 0.000, 09:24:32.029, 7
138, 13.29, 11.16, 0.00, 15.93, 0.000, 0.000, 0.000, 09:24:32.029, 7
139, 17.96, 18.27, 0.00, 16.75, 0.000, 0.000, 0.000, 09:24:32.029, 7
140, 11.82, 8.55, 0.00, 15.49, 0.000, 0.000, 0.000, 09:24:32.029, 7
141, 11.81, 12.77, 0.00, 20.00, 0.000, 0.000, 0.000, 09:24:32.029, 7
142, 10.44, 13.91, 0.00, 15.37, 0.000, 0.000, 0.000, 09:24:32.030, 7
143, 14.95, 16.95, 0.00, 19.13, 0.000, 0.000, 0.000, 09:24:32.041, 7
144, 15.56, 18.43, 0.00, 18.00, 0.000, 0.000, 0.000, 09:24:32.041, 7
145, 10.47, 13.86, 0.00, 13.51, 0.000, 0.000, 0.000, 09:24:32.072, 7
146, 13.81, 10.55, 0.00, 12.51, 0.000, 0.000, 0.000, 09:24:32.072, 7
147, 18.33, 17.37, 0.00, 20.05, 0.000, 0.000, 0.000, 09:24:32.073, 7
148, 14.36, 15.96, 0.00, 18.19, 0.000, 0.000, 0.000, 09:24:32.073, 7
149, 9.36, 7.52, 0.00, 10.19, 0.000, 0.000, 0.000, 09:24:32.073, 7
150, 10.95, 9.21, 0.00, 10.90, 0.000, 0.000, 0.000, 09:24:32.074, 7
151, 17.55, 14.82, 0.00, 17.08, 0.000, 0.000, 0.000, 09:24:32.087, 7
152, 17.14, 14.42, 0.00, 15.16, 0.000, 0.000, 0.000, 09:24:32.087, 7
153, 12.38, 13.41, 0.00, 15.68, 0.000, 0.000, 0.000, 09:24:32.102, 7
154, 11.73, 13.77, 0.00, 13.00, 0.000, 0.000, 0.000, 09:24:32.102, 7
155, 14.84, 14.77, 0.00, 18.54, 0.000, 0.000, 0.000, 09:24:32.118, 7
156, 19.07, 21.64, 0.00, 18.89, 0.000, 0.000, 0.000, 09:24:32.118, 7
157, 15.17, 10.49, 0.00, 13.95, 0.000, 0.000, 0.000, 09:24:32.118, 7
158, 12.12, 8.44, 0.00, 10.82, 0.000, 0.000, 0.000, 09:24:32.119, 7
159, 18.19, 14.30, 0.00, 17.88, 0.000, 0.000, 0.000, 09:24:32.134, 7
160, 14.10, 20.88, 0.00, 18.48, 0.000, 0.000, 0.000, 09:24:32.134, 7
161, 15.47, 7.64, 0.00, 11.61, 0.000, 0.000, 0.000, 09:24:32.134, 7
162, 11.74, 12.21, 0.00, 15.87, 0.000, 0.000, 0.000, 09:24:32.134, 7
163, 14.09, 16.52, 0.00, 18.56, 0.000, 0.000, 0.000, 09:24:32.147, 7
164, 16.73, 11.16, 0.00, 13.57, 0.000, 0.000, 0.000, 09:24:32.147, 7
165, 12.66, 12.22, 0.00, 15.63, 0.000, 0.000, 0.000, 09:24:32.163, 7
166, 15.73, 13.98, 0.00, 14.49, 0.000, 0.000, 0.000, 09:24:32.163, 7
167, 13.85, 10.70, 0.00, 16.86, 0.000, 0.000, 0.000, 09:24:32.163, 7
168, 17.71, 15.77, 0.00, 21.08, 0.000, 0.000, 0.000, 09:24:32.163, 7
169, 13.48, 9.34, 0.00, 13.33, 0.000, 0.000, 0.000, 09:24:32.191, 7
170, 9.53, 6.09, 0.00, 12.94, 0.000, 0.000, 0.000, 09:24:32.192, 7
171, 17.33, 14.25, 0.00, 18.00, 0.000, 0.000, 0.000, 09:24:32.192, 7
172, 14.46, 14.52, 0.00, 17.89, 0.000, 0.000, 0.000, 09:24:32.192, 7
173, 15.91, 7.84, 0.00, 14.57, 0.000, 0.000, 0.000, 09:24:32.193, 7
174, 15.89, 12.04, 0.00, 15.53, 0.000, 0.000, 0.000, 09:24:32.193, 7
175, 21.15, 19.11, 0.00, 23.42, 0.000, 0.000, 0.000, 09:24:32.222, 7
176, 11.52, 12.80, 0.00, 16.99, 0.000, 0.000, 0.000, 09:24:32.222, 7
177, 12.78, 10.73, 0.00, 14.49, 0.000, 0.000, 0.000, 09:24:32.222, 7
178, 11.64, 13.81, 0.00, 15.01, 0.000, 0.000, 0.000, 09:24:32.222, 7
179, 15.78, 13.71, 0.00, 14.96, 0.000, 0.000, 0.000, 09:24:32.223, 7
180, 12.69, 12.42, 0.00, 15.63, 0.000, 0.000, 0.000, 09:24:32.223, 7
181, 16.05, 7.92, 0.00, 14.14, 0.000, 0.000, 0.000, 09:24:32.237, 7
182, 12.77, 11.30, 0.00, 14.48, 0.000, 0.000, 0.000, 09:24:32.237, 7
183, 18.70, 20.43, 0.00, 20.29, 0.000, 0.000, 0.000, 09:24:32.252, 7
184, 18.02, 15.68, 0.00, 16.66, 0.000, 0.000, 0.000, 09:24:32.252, 7
185, 12.72, 12.46, 0.00, 8.66, 0.000, 0.000, 0.000, 09:24:32.252, 7
186, 8.91, 10.34, 0.00, 16.87, 0.000, 0.000, 0.000, 09:24:32.252, 7
187, 14.85, 17.77, 0.00, 20.05, 0.000, 0.000, 0.000, 09:24:32.268, 7
188, 13.17, 14.47, 0.00, 14.82, 0.000, 0.000, 0.000, 09:24:32.268, 7
189, 12.15, 10.19, 0.00, 14.05, 0.000, 0.000, 0.000, 09:24:32.282, 7
190, 13.99, 12.56, 0.00, 14.39, 0.000, 0.000, 0.000, 09:24:32.282, 7
191, 14.86, 12.35, 0.00, 15.71, 0.000, 0.000, 0.000, 09:24:32.283, 7
192, 18.42, 14.22, 0.00, 19.49, 0.000, 0.000, 0.000, 09:24:32.284, 7
193, 11.38, 11.74, 0.00, 8.26, 0.000, 0.000, 0.000, 09:24:32.312, 7
194, 10.51, 9.94, 0.00, 11.65, 0.000, 0.000, 0.000, 09:24:32.313, 7
195, 23.63, 19.53, 0.00, 25.11, 0.000, 0.000, 0.000, 09:24:32.315, 7
196, 20.06, 15.78, 0.00, 18.59, 0.000, 0.000, 0.000, 09:24:32.316, 7
197, 11.28, 11.77, 0.00, 9.30, 0.000, 0.000, 0.000, 09:24:32.317, 7
198, 13.69, 11.92, 0.00, 15.82, 0.000, 0.000, 0.000, 09:24:32.320, 7
199, 15.26, 18.78, 0.00, 17.80, 0.000, 0.000, 0.000, 09:24:32.341, 7
200, 15.91, 12.52, 0.00, 16.88, 0.000, 0.000, 0.000, 09:24:32.342, 7
0, 12.46, 11.88, 0.00, 16.33, 0.000, 0.000, 0.000, 09:24:32.342, 7
1, 10.34, 11.78, 0.00, 20.15, 0.000, 0.000, 0.000, 09:24:32.343, 7
2, 17.42, 13.80, 0.00, 16.06, 0.000, 0.000, 0.000, 09:24:32.343, 7
3, 16.19, 14.07, 0.00, 18.64, 0.000, 0.000, 0.000, 09:24:32.343, 7
4, 12.58, 11.65, 0.00, 11.03, 0.000, 0.000, 0.000, 09:24:32.343, 7
5, 13.92, 8.57, 0.00, 14.45, 0.000, 0.000, 0.000, 09:24:32.356, 7
6, 16.22, 15.16, 0.00, 18.81, 0.000, 0.000, 0.000, 09:24:32.356, 7
7, 16.71, 16.29, 0.00, 18.93, 0.000, 0.000, 0.000, 09:24:32.371, 7
8, 11.88, 9.88, 0.00, 8.86, 0.000, 0.000, 0.000, 09:24:32.371, 7
9, 12.95, 9.11, 0.00, 11.19, 0.000, 0.000, 0.000, 09:24:32.386, 7
10, 16.41, 15.68, 0.00, 26.08, 0.000, 0.000, 0.000, 09:24:32.386, 7
11, 14.98, 11.32, 0.00, 15.83, 0.000, 0.000, 0.000, 09:24:32.387, 7
12, 8.79, 11.04, 0.00, 14.28, 0.000, 0.000, 0.000, 09:24:32.387, 7
13, 17.09, 13.31, 0.00, 14.93, 0.000, 0.000, 0.000, 09:24:32.401, 7
14, 17.39, 16.73, 0.00, 21.91, 0.000, 0.000, 0.000, 09:24:32.401, 7
15, 15.59, 18.65, 0.00, 23.05, 0.000, 0.000, 0.000, 09:24:32.433, 7
16, 10.06, 10.81, 0.00, 11.86, 0.000, 0.000, 0.000, 09:24:32.433, 7
17, 14.00, 9.27, 0.00, 11.47, 0.000, 0.000, 0.000, 09:24:32.434, 7
18, 15.25, 17.76, 0.00, 20.10, 0.000, 0.000, 0.000, 09:24:32.434, 7
19, 16.52, 13.90, 0.00, 22.70, 0.000, 0.000, 0.000, 09:24:32.434, 7
20, 13.25, 8.78, 0.00, 9.41, 0.000, 0.000, 0.000, 09:24:32.434, 7
21, 17.73, 11.99, 0.00, 19.76, 0.000, 0.000, 0.000, 09:24:32.434, 7
22, 14.64, 18.57, 0.00, 20.31, 0.000, 0.000, 0.000, 09:24:32.434, 7
23, 18.53, 13.05, 0.00, 15.61, 0.000, 0.000, 0.000, 09:24:32.447, 7
24, 10.76, 10.49, 0.00, 15.19, 0.000, 0.000, 0.000, 09:24:32.447, 7
25, 12.51, 16.14, 0.00, 14.98, 0.000, 0.000, 0.000, 09:24:32.463, 7
26, 13.00, 12.49, 0.00, 14.10, 0.000, 0.000, 0.000, 09:24:32.463, 7
27, 18.53, 14.71, 0.00, 16.36, 0.000, 0.000, 0.000, 09:24:32.477, 7
28, 10.77, 13.55, 0.00, 15.05, 0.000, 0.000, 0.000, 09:24:32.477, 7
29, 13.70, 7.04, 0.00, 13.24, 0.000, 0.000, 0.000, 09:24:32.477, 7
30, 20.11, 15.80, 0.00, 16.06, 0.000, 0.000, 0.000, 09:24:32.478, 7
31, 14.34, 12.35, 0.00, 12.20, 0.000, 0.000, 0.000, 09:24:32.507, 7
32, 8.93, 11.26, 0.00, 10.86, 0.000, 0.000, 0.000, 09:24:32.507, 7
33, 15.16, 14.39, 0.00, 19.25, 0.000, 0.000, 0.000, 09:24:32.507, 7
34, 16.74, 14.12, 0.00, 20.43, 0.000, 0.000, 0.000, 09:24:32.507, 7
35, 12.81, 11.01, 0.00, 15.81, 0.000, 0.000, 0.000, 09:24:32.508, 7
36, 11.08, 10.33, 0.00, 12.21, 0.000, 0.000, 0.000, 09:24:32.508, 7
37, 11.85, 14.93, 0.00, 20.15, 0.000, 0.000, 0.000, 09:24:32.522, 7
38, 15.60, 16.38, 0.00, 19.89, 0.000, 0.000, 0.000, 09:24:32.522, 7
39, 17.39, 18.01, 0.00, 21.71, 0.000, 0.000, 0.000, 09:24:32.538, 7
40, 10.20, 7.82, 0.00, 12.36, 0.000, 0.000, 0.000, 09:24:32.538, 7
41, 16.51, 11.66, 0.00, 11.13, 0.000, 0.000, 0.000, 09:24:32.538, 7
42, 16.52, 19.80, 0.00, 18.88, 0.000, 0.000, 0.000, 09:24:32.538, 7
43, 14.88, 11.82, 0.00, 17.38, 0.000, 0.000, 0.000, 09:24:32.552, 7
44, 10.43, 9.97, 0.00, 11.89, 0.000, 0.000, 0.000, 09:24:32.552, 7
45, 15.04, 14.67, 0.00, 16.56, 0.000, 0.000, 0.000, 09:24:32.583, 7
46, 18.01, 15.96, 0.00, 21.49, 0.000, 0.000, 0.000, 09:24:32.583, 7
47, 16.09, 10.36, 0.00, 11.02, 0.000, 0.000, 0.000, 09:24:32.583, 7
48, 13.19, 11.64, 0.00, 11.52, 0.000, 0.000, 0.000, 09:24:32.583, 7
49, 15.26, 15.08, 0.00, 17.18, 0.000, 0.000, 0.000, 09:24:32.583, 7
50, 16.58, 11.76, 0.00, 16.92, 0.000, 0.000, 0.000, 09:24:32.583, 7
51, 17.90, 13.43, 0.00, 14.52, 0.000, 0.000, 0.000, 09:24:32.583, 7
52, 11.94, 12.19, 0.00, 17.57, 0.000, 0.000, 0.000, 09:24:32.583, 7
53, 12.81, 7.78, 0.00, 15.21, 0.000, 0.000, 0.000, 09:24:32.597, 7
54, 17.16, 19.54, 0.00, 19.39, 0.000, 0.000, 0.000, 09:24:32.597, 7
55, 20.00, 16.14, 0.00, 17.79, 0.000, 0.000, 0.000, 09:24:32.626, 7
56, 11.16, 8.02, 0.00, 10.72, 0.000, 0.000, 0.000, 09:24:32.627, 7
57, 11.66, 14.21, 0.00, 16.96, 0.000, 0.000, 0.000, 09:24:32.627, 7
58, 18.83, 16.69, 0.00, 20.24, 0.000, 0.000, 0.000, 09:24:32.627, 7
59, 12.72, 14.27, 0.00, 11.52, 0.000, 0.000, 0.000, 09:24:32.629, 7
60, 12.63, 14.83, 0.00, 13.58, 0.000, 0.000, 0.000, 09:24:32.629, 7
61, 18.51, 14.49, 0.00, 17.70, 0.000, 0.000, 0.000, 09:24:32.656, 7
62, 18.29, 13.46, 0.00, 16.05, 0.000, 0.000, 0.000, 09:24:32.656, 7
63, 14.36, 10.82, 0.00, 18.14, 0.000, 0.000, 0.000, 09:24:32.657, 7
64, 9.30, 10.22, 0.00, 12.33, 0.000, 0.000, 0.000, 09:24:32.657, 7
65, 12.76, 11.46, 0.00, 13.53, 0.000, 0.000, 0.000, 09:24:32.671, 7
66, 18.95, 14.83, 0.00, 23.61, 0.000, 0.000, 0.000, 09:24:32.671, 7
67, 18.01, 11.96, 0.00, 17.71, 0.000, 0.000, 0.000, 09:24:32.672, 7
68, 8.71, 8.27, 0.00, 11.17, 0.000, 0.000, 0.000, 09:24:32.672, 7
69, 12.17, 15.89, 0.00, 15.43, 0.000, 0.000, 0.000, 09:24:32.686, 7
70, 16.81, 16.40, 0.00, 20.74, 0.000, 0.000, 0.000, 09:24:32.686, 7
71, 15.26, 13.39, 0.00, 12.91, 0.000, 0.000, 0.000, 09:24:32.687, 7
72, 13.99, 14.16, 0.00, 11.63, 0.000, 0.000, 0.000, 09:24:32.687, 7
73, 14.72, 12.84, 0.00, 18.57, 0.000, 0.000, 0.000, 09:24:32.703, 7
74, 16.58, 15.37, 0.00, 18.08, 0.000, 0.000, 0.000, 09:24:32.704, 7
75, 13.89, 12.92, 0.00, 16.81, 0.000, 0.000, 0.000, 09:24:32.717, 7
76, 12.27, 12.80, 0.00, 16.59, 0.000, 0.000, 0.000, 09:24:32.718, 7
77, 14.02, 12.59, 0.00, 11.88, 0.000, 0.000, 0.000, 09:24:32.718, 7
78, 16.98, 15.96, 0.00, 21.15, 0.000, 0.000, 0.000, 09:24:32.718, 7
79, 17.24, 15.30, 0.00, 19.03, 0.000, 0.000, 0.000, 09:24:32.746, 7
80, 11.82, 9.88, 0.00, 7.09, 0.000, 0.000, 0.000, 09:24:32.747, 7
81, 12.99, 15.83, 0.00, 17.63, 0.000, 0.000, 0.000, 09:24:32.747, 7
82, 13.98, 16.69, 0.00, 21.21, 0.000, 0.000, 0.000, 09:24:32.748, 7
83, 14.47, 14.39, 0.00, 11.37, 0.000, 0.000, 0.000, 09:24:32.749, 7
84, 12.38, 7.23, 0.00, 13.67, 0.000, 0.000, 0.000, 09:24:32.750, 7
85, 12.65, 14.90, 0.00, 15.46, 0.000, 0.000, 0.000, 09:24:32.776, 7
86, 13.03, 15.14, 0.00, 18.47, 0.000, 0.000, 0.000, 09:24:32.776, 7
87, 14.22, 15.16, 0.00, 18.12, 0.000, 0.000, 0.000, 09:24:32.777, 7
88, 13.89, 11.29, 0.00, 14.09, 0.000, 0.000, 0.000, 09:24:32.778, 7
89, 13.47, 14.68, 0.00, 17.20, 0.000, 0.000, 0.000, 09:24:32.784, 7
90, 18.56, 16.69, 0.00, 20.02, 0.000, 0.000, 0.000, 09:24:32.784, 7
91, 15.46, 13.43, 0.00, 20.92, 0.000, 0.000, 0.000, 09:24:32.791, 7
92, 13.90, 7.48, 0.00, 11.10, 0.000, 0.000, 0.000, 09:24:32.791, 7
93, 17.78, 20.61, 0.00, 19.43, 0.000, 0.000, 0.000, 09:24:32.807, 7
94, 17.55, 19.91, 0.00, 17.85, 0.000, 0.000, 0.000, 09:24:32.807, 7
95, 14.27, 7.08, 0.00, 12.31, 0.000, 0.000, 0.000, 09:24:32.807, 7
96, 9.63, 11.82, 0.00, 12.36, 0.000, 0.000, 0.000, 09:24:32.807, 7
97, 15.01, 16.36, 0.00, 18.29, 0.000, 0.000, 0.000, 09:24:32.822, 7
98, 17.32, 16.00, 0.00, 17.73, 0.000, 0.000, 0.000, 09:24:32.822, 7
99, 12.14, 16.71, 0.00, 18.10, 0.000, 0.000, 0.000, 09:24:32.837, 7
100, 11.19, 7.80, 0.00, 14.97, 0.000, 0.000, 0.000, 09:24:32.837, 7
101, 16.27, 10.34, 0.00, 13.55, 0.000, 0.000, 0.000, 09:24:32.837, 7
102, 19.96, 18.22, 0.00, 22.49, 0.000, 0.000, 0.000, 09:24:32.838, 7
103, 15.82, 12.42, 0.00, 14.47, 0.000, 0.000, 0.000, 09:24:32.867, 7
104, 12.03, 7.50, 0.00, 8.63, 0.000, 0.000, 0.000, 09:24:32.867, 7
105, 13.94, 13.97, 0.00, 18.81, 0.000, 0.000, 0.000, 09:24:32.867, 7
106, 18.89, 15.60, 0.00, 20.75, 0.000, 0.000, 0.000, 09:24:32.867, 7
107, 13.04, 13.75, 0.00, 16.32, 0.000, 0.000, 0.000, 09:24:32.868, 7
108, 7.34, 5.30, 0.00, 9.53, 0.000, 0.000, 0.000, 09:24:32.868, 7
109, 16.54, 16.55, 0.00, 17.98, 0.000, 0.000, 0.000, 09:24:32.897, 7
110, 15.93, 14.08, 0.00, 19.22, 0.000, 0.000, 0.000, 09:24:32.897, 7
111, 13.49, 14.16, 0.00, 15.02, 0.000, 0.000, 0.000, 09:24:32.899, 7
112, 9.34, 10.79, 0.00, 12.68, 0.000, 0.000, 0.000, 09:24:32.900, 7
113, 14.28, 11.74, 0.00, 13.70, 0.000, 0.000, 0.000, 09:24:32.901, 7
114, 23.13, 19.34, 0.00, 20.84, 0.000, 0.000, 0.000, 09:24:32.901, 7
115, 17.56, 14.29, 0.00, 17.31, 0.000, 0.000, 0.000, 09:24:32.913, 7
116, 10.20, 4.95, 0.00, 14.09, 0.000, 0.000, 0.000, 09:24:32.913, 7
117, 13.53, 15.02, 0.00, 19.54, 0.000, 0.000, 0.000, 09:24:32.927, 7
118, 18.20, 15.21, 0.00, 23.20, 0.000, 0.000, 0.000, 09:24:32.927, 7
119, 14.54, 13.05, 0.00, 17.19, 0.000, 0.000, 0.000, 09:24:32.942, 7
120, 10.54, 8.76, 0.00, 15.29, 0.000, 0.000, 0.000, 09:24:32.942, 7
121, 13.83, 12.14, 0.00, 16.01, 0.000, 0.000, 0.000, 09:24:32.943, 7
122, 18.11, 14.31, 0.00, 14.82, 0.000, 0.000, 0.000, 09:24:32.943, 7
123, 15.25, 13.99, 0.00, 17.60, 0.000, 0.000, 0.000, 09:24:32.957, 7
124, 9.38, 11.03, 0.00, 13.01, 0.000, 0.000, 0.000, 09:24:32.958, 7
125, 11.74, 16.29, 0.00, 14.82, 0.000, 0.000, 0.000, 09:24:32.958, 7
126, 16.75, 20.09, 0.00, 19.88, 0.000, 0.000, 0.000, 09:24:32.958, 7
127, 13.61, 14.18, 0.00, 15.97, 0.000, 0.000, 0.000, 09:24:32.972, 7
128, 10.05, 8.95, 0.00, 13.32, 0.000, 0.000, 0.000, 09:24:32.972, 7
129, 12.63, 10.09, 0.00, 15.74, 0.000, 0.000, 0.000, 09:24:32.987, 7
130, 18.66, 14.03, 0.00, 14.37, 0.000, 0.000, 0.000, 09:24:32.987, 7
131, 12.86, 9.63, 0.00, 16.07, 0.000, 0.000, 0.000, 09:24:32.988, 7
132, 9.76, 13.71, 0.00, 8.94, 0.000, 0.000, 0.000, 09:24:32.988, 7
133, 15.61, 11.81, 0.00, 16.78, 0.000, 0.000, 0.000, 09:24:33.002, 7
134, 19.46, 14.70, 0.00, 16.29, 0.000, 0.000, 0.000, 09:24:33.002, 7
135, 13.46, 13.49, 0.00, 18.48, 0.000, 0.000, 0.000, 09:24:33.017, 7
136, 10.60, 8.31, 0.00, 8.08, 0.000, 0.000, 0.000, 09:24:33.017, 7
137, 11.85, 14.46, 0.00, 12.65, 0.000, 0.000, 0.000, 09:24:33.018, 7
138, 18.48, 16.29, 0.00, 22.17, 0.000, 0.000, 0.000, 09:24:33.018, 7
139, 15.11, 13.29, 0.00, 15.04, 0.000, 0.000, 0.000, 09:24:33.032, 7
140, 11.39, 11.69, 0.00, 13.76, 0.000, 0.000, 0.000, 09:24:33.033, 7
141, 18.56, 18.17, 0.00, 18.52, 0.000, 0.000, 0.000, 09:24:33.062, 7
142, 17.08, 14.90, 0.00, 19.82, 0.000, 0.000, 0.000, 09:24:33.063, 7
143, 15.35, 10.06, 0.00, 14.10, 0.000, 0.000, 0.000, 09:24:33.063, 7
144, 14.00, 15.11, 0.00, 15.83, 0.000, 0.000, 0.000, 09:24:33.063, 7
145, 11.44, 14.13, 0.00, 17.70, 0.000, 0.000, 0.000, 09:24:33.064, 7
146, 17.45, 17.14, 0.00, 18.92, 0.000, 0.000, 0.000, 09:24:33.064, 7
147, 12.86, 16.80, 0.00, 17.08, 0.000, 0.000, 0.000, 09:24:33.065, 7
148, 14.04, 8.41, 0.00, 8.48, 0.000, 0.000, 0.000, 09:24:33.066, 7
149, 17.67, 10.22, 0.00, 17.89, 0.000, 0.000, 0.000, 09:24:33.078, 7
150, 16.49, 18.58, 0.00, 20.97, 0.000, 0.000, 0.000, 09:24:33.079, 7
151, 13.00, 14.31, 0.00, 15.40, 0.000, 0.000, 0.000, 09:24:33.092, 7
152, 10.26, 6.14, 0.00, 11.14, 0.000, 0.000, 0.000, 09:24:33.092, 7
153, 12.66, 15.32, 0.00, 15.76, 0.000, 0.000, 0.000, 09:24:33.109, 7
154, 19.69, 15.64, 0.00, 22.05, 0.000, 0.000, 0.000, 09:24:33.110, 7
155, 15.12, 14.28, 0.00, 12.93, 0.000, 0.000, 0.000, 09:24:33.110, 7
156, 13.25, 9.23, 0.00, 12.60, 0.000, 0.000, 0.000, 09:24:33.110, 7
157, 12.30, 16.26, 0.00, 18.06, 0.000, 0.000, 0.000, 09:24:33.133, 7
158, 14.79, 15.51, 0.00, 19.50, 0.000, 0.000, 0.000, 09:24:33.134, 7
159, 13.30, 13.70, 0.00, 17.64, 0.000, 0.000, 0.000, 09:24:33.136, 7
160, 12.61, 11.72, 0.00, 17.08, 0.000, 0.000, 0.000, 09:24:33.137, 7
161, 15.43, 11.40, 0.00, 14.16, 0.000, 0.000, 0.000, 09:24:33.137, 7
162, 17.72, 13.82, 0.00, 19.71, 0.000, 0.000, 0.000, 09:24:33.137, 7
163, 15.44, 13.07, 0.00, 13.99, 0.000, 0.000, 0.000, 09:24:33.151, 7
164, 7.69, 8.18, 0.00, 12.13, 0.000, 0.000, 0.000, 09:24:33.151, 7
165, 17.30, 14.43, 0.00, 17.57, 0.000, 0.000, 0.000, 09:24:33.183, 7
166, 17.16, 16.73, 0.00, 20.02, 0.000, 0.000, 0.000, 09:24:33.184, 7
167, 12.59, 10.57, 0.00, 12.06, 0.000, 0.000, 0.000, 09:24:33.184, 7
168, 7.71, 9.46, 0.00, 13.62, 0.000, 0.000, 0.000, 09:24:33.184, 7
169, 16.25, 15.46, 0.00, 17.31, 0.000, 0.000, 0.000, 09:24:33.185, 7
170, 15.09, 13.88, 0.00, 15.04, 0.000, 0.000, 0.000, 09:24:33.185, 7
171, 13.77, 15.83, 0.00, 14.36, 0.000, 0.000, 0.000, 09:24:33.185, 7
172, 15.92, 13.17, 0.00, 13.19, 0.000, 0.000, 0.000, 09:24:33.185, 7
173, 11.88, 12.36, 0.00, 15.10, 0.000, 0.000, 0.000, 09:24:33.197, 7
174, 18.21, 17.85, 0.00, 21.70, 0.000, 0.000, 0.000, 09:24:33.197, 7
175, 14.45, 13.70, 0.00, 18.54, 0.000, 0.000, 0.000, 09:24:33.228, 7
176, 12.20, 6.47, 0.00, 11.24, 0.000, 0.000, 0.000, 09:24:33.229, 7
177, 13.05, 15.02, 0.00, 18.38, 0.000, 0.000, 0.000, 09:24:33.230, 7
178, 20.85, 18.95, 0.00, 17.75, 0.000, 0.000, 0.000, 09:24:33.230, 7
179, 13.15, 10.59, 0.00, 14.69, 0.000, 0.000, 0.000, 09:24:33.231, 7
180, 13.93, 11.08, 0.00, 11.86, 0.000, 0.000, 0.000, 09:24:33.231, 7
181, 13.81, 15.40, 0.00, 17.68, 0.000, 0.000, 0.000, 09:24:33.242, 7
182, 16.86, 15.28, 0.00, 16.19, 0.000, 0.000, 0.000, 09:24:33.242, 7
183, 15.98, 12.57, 0.00, 12.93, 0.000, 0.000, 0.000, 09:24:33.257, 7
184, 13.67, 10.98, 0.00, 11.66, 0.000, 0.000, 0.000, 09:24:33.257, 7
185, 17.80, 14.69, 0.00, 16.15, 0.000, 0.000, 0.000, 09:24:33.257, 7
186, 19.83, 14.42, 0.00, 23.03, 0.000, 0.000, 0.000, 09:24:33.258, 7
187, 13.51, 11.64, 0.00, 18.16, 0.000, 0.000, 0.000, 09:24:33.272, 7
188, 11.81, 10.27, 0.00, 9.48, 0.000, 0.000, 0.000, 09:24:33.272, 7
189, 15.59, 15.08, 0.00, 20.80, 0.000, 0.000, 0.000, 09:24:33.302, 7
190, 16.09, 14.74, 0.00, 23.01, 0.000, 0.000, 0.000, 09:24:33.302, 7
191, 11.95, 12.38, 0.00, 14.42, 0.000, 0.000, 0.000, 09:24:33.302, 7
192, 9.84, 11.80, 0.00, 13.32, 0.000, 0.000, 0.000, 09:24:33.302, 7
193, 16.26, 12.26, 0.00, 14.96, 0.000, 0.000, 0.000, 09:24:33.303, 7
194, 12.64, 13.40, 0.00, 18.86, 0.000, 0.000, 0.000, 09:24:33.303, 7
195, 10.78, 11.45, 0.00, 16.34, 0.000, 0.000, 0.000, 09:24:33.303, 7
196, 10.07, 7.82, 0.00, 14.20, 0.000, 0.000, 0.000, 09:24:33.304, 7
197, 15.65, 15.92, 0.00, 16.80, 0.000, 0.000, 0.000, 09:24:33.333, 7
198, 17.69, 18.03, 0.00, 22.37, 0.000, 0.000, 0.000, 09:24:33.334, 7
199, 12.71, 12.45, 0.00, 16.96, 0.000, 0.000, 0.000, 09:24:33.334, 7
200, 16.53, 11.46, 0.00, 12.23, 0.000, 0.000, 0.000, 09:24:33.334, 7
0, 14.57, 13.49, 0.00, 15.22, 0.000, 0.000, 0.000, 09:24:33.334, 7
1, 17.77, 18.30, 0.00, 18.89, 0.000, 0.000, 0.000, 09:24:33.348, 7
2, 13.17, 12.02, 0.00, 10.48, 0.000, 0.000, 0.000, 09:24:33.348, 7
3, 14.20, 11.46, 0.00, 17.00, 0.000, 0.000, 0.000, 09:24:33.363, 7
4, 16.18, 14.82, 0.00, 20.69, 0.000, 0.000, 0.000, 09:24:33.364, 7
5, 17.28, 16.37, 0.00, 23.09, 0.000, 0.000, 0.000, 09:24:33.370, 7
6, 15.51, 11.97, 0.00, 14.28, 0.000, 0.000, 0.000, 09:24:33.370, 7
7, 13.27, 11.34, 0.00, 14.57, 0.000, 0.000, 0.000, 09:24:33.378, 7
8, 14.09, 12.54, 0.00, 15.11, 0.000, 0.000, 0.000, 09:24:33.379, 7
9, 15.62, 17.56, 0.00, 19.95, 0.000, 0.000, 0.000, 09:24:33.391, 7
10, 15.34, 10.05, 0.00, 12.98, 0.000, 0.000, 0.000, 09:24:33.391, 7
11, 10.35, 7.65, 0.00, 13.35, 0.000, 0.000, 0.000, 09:24:33.392, 7
12, 13.21, 15.84, 0.00, 19.05, 0.000, 0.000, 0.000, 09:24:33.392, 7
13, 17.42, 18.68, 0.00, 19.77, 0.000, 0.000, 0.000, 09:24:33.421, 7
14, 10.50, 12.27, 0.00, 16.07, 0.000, 0.000, 0.000, 09:24:33.421, 7
15, 14.59, 10.44, 0.00, 14.44, 0.000, 0.000, 0.000, 09:24:33.422, 7
16, 19.13, 15.63, 0.00, 15.90, 0.000, 0.000, 0.000, 09:24:33.422, 7
17, 13.44, 15.93, 0.00, 17.39, 0.000, 0.000, 0.000, 09:24:33.422, 7
18, 15.07, 12.54, 0.00, 13.81, 0.000, 0.000, 0.000, 09:24:33.423, 7
19, 12.80, 14.93, 0.00, 13.22, 0.000, 0.000, 0.000, 09:24:33.451, 7
20, 14.27, 11.20, 0.00, 12.58, 0.000, 0.000, 0.000, 09:24:33.452, 7
21, 16.81, 18.92, 0.00, 21.05, 0.000, 0.000, 0.000, 09:24:33.452, 7
22, 14.20, 11.35, 0.00, 14.10, 0.000, 0.000, 0.000, 09:24:33.452, 7
23, 10.83, 6.54, 0.00, 12.34, 0.000, 0.000, 0.000, 09:24:33.453, 7
24, 15.07, 15.46, 0.00, 15.42, 0.000, 0.000, 0.000, 09:24:33.453, 7
25, 17.73, 15.50, 0.00, 20.47, 0.000, 0.000, 0.000, 09:24:33.466, 7
26, 14.10, 8.10, 0.00, 10.91, 0.000, 0.000, 0.000, 09:24:33.466, 7
27, 13.26, 11.82, 0.00, 15.07, 0.000, 0.000, 0.000, 09:24:33.497, 7
28, 16.94, 16.96, 0.00, 20.90, 0.000, 0.000, 0.000, 09:24:33.497, 7
29, 15.17, 15.48, 0.00, 18.52, 0.000, 0.000, 0.000, 09:24:33.498, 7
30, 14.01, 12.11, 0.00, 13.34, 0.000, 0.000, 0.000, 09:24:33.499, 7
31, 10.83, 11.46, 0.00, 12.00, 0.000, 0.000, 0.000, 09:24:33.499, 7
32, 14.42, 14.89, 0.00, 19.53, 0.000, 0.000, 0.000, 09:24:33.499, 7
33, 18.10, 19.54, 0.00, 17.36, 0.000, 0.000, 0.000, 09:24:33.499, 7
34, 10.04, 10.34, 0.00, 14.07, 0.000, 0.000, 0.000, 09:24:33.500, 7
35, 13.71, 9.34, 0.00, 10.02, 0.000, 0.000, 0.000, 09:24:33.512, 7
36, 16.39, 14.70, 0.00, 20.89, 0.000, 0.000, 0.000, 09:24:33.512, 7
37, 20.91, 13.13, 0.00, 23.25, 0.000, 0.000, 0.000, 09:24:33.526, 7
38, 18.53, 8.56, 0.00, 8.90, 0.000, 0.000, 0.000, 09:24:33.526, 7
39, 12.79, 10.41, 0.00, 14.77, 0.000, 0.000, 0.000, 09:24:33.541, 7
40, 15.65, 18.32, 0.00, 15.41, 0.000, 0.000, 0.000, 09:24:33.541, 7
41, 14.31, 12.41, 0.00, 15.89, 0.000, 0.000, 0.000, 09:24:33.542, 7
42, 12.07, 13.82, 0.00, 20.54, 0.000, 0.000, 0.000, 09:24:33.542, 7
43, 16.56, 10.46, 0.00, 18.88, 0.000, 0.000, 0.000, 09:24:33.557, 7
44, 15.42, 13.31, 0.00, 16.33, 0.000, 0.000, 0.000, 09:24:33.557, 7
45, 17.12, 18.28, 0.00, 20.39, 0.000, 0.000, 0.000, 09:24:33.572, 7
46, 9.74, 10.58, 0.00, 12.05, 0.000, 0.000, 0.000, 09:24:33.572, 7
47, 7.51, 4.85, 0.00, 7.47, 0.000, 0.000, 0.000, 09:24:33.572, 7
48, 15.07, 15.89, 0.00, 18.22, 0.000, 0.000, 0.000, 09:24:33.573, 7
49, 18.42, 14.36, 0.00, 19.49, 0.000, 0.000, 0.000, 09:24:33.587, 7
50, 10.27, 6.88, 0.00, 10.60, 0.000, 0.000, 0.000, 09:24:33.587, 7
51, 12.28, 10.65, 0.00, 15.43, 0.000, 0.000, 0.000, 09:24:33.617, 7
52, 15.22, 12.27, 0.00, 16.35, 0.000, 0.000, 0.000, 09:24:33.617, 7
53, 18.41, 14.93, 0.00, 19.14, 0.000, 0.000, 0.000, 09:24:33.618, 7
54, 11.25, 15.79, 0.00, 18.97, 0.000, 0.000, 0.000, 09:24:33.618, 7
55, 12.63, 11.61, 0.00, 12.08, 0.000, 0.000, 0.000, 09:24:33.619, 7
56, 19.39, 17.69, 0.00, 16.80, 0.000, 0.000, 0.000, 09:24:33.619, 7
57, 15.46, 15.54, 0.00, 16.47, 0.000, 0.000, 0.000, 09:24:33.619, 7
58, 13.76, 11.76, 0.00, 9.74, 0.000, 0.000, 0.000, 09:24:33.619, 7
59, 10.57, 9.30, 0.00, 11.99, 0.000, 0.000, 0.000, 09:24:33.632, 7
60, 17.78, 18.33, 0.00, 25.81, 0.000, 0.000, 0.000, 09:24:33.633, 7
61, 19.13, 18.56, 0.00, 22.20, 0.000, 0.000, 0.000, 09:24:33.663, 7
62, 10.18, 6.88, 0.00, 10.58, 0.000, 0.000, 0.000, 09:24:33.664, 7
63, 9.96, 8.96, 0.00, 11.92, 0.000, 0.000, 0.000, 09:24:33.664, 7
64, 17.91, 19.42, 0.00, 14.88, 0.000, 0.000, 0.000, 09:24:33.665, 7
65, 16.61, 15.75, 0.00, 14.53, 0.000, 0.000, 0.000, 09:24:33.665, 7
66, 9.52, 12.64, 0.00, 12.57, 0.000, 0.000, 0.000, 09:24:33.666, 7
67, 12.15, 11.20, 0.00, 11.20, 0.000, 0.000, 0.000, 09:24:33.692, 7
68, 16.82, 11.19, 0.00, 15.49, 0.000, 0.000, 0.000, 09:24:33.692, 7
69, 16.04, 18.30, 0.00, 25.44, 0.000, 0.000, 0.000, 09:24:33.692, 7
70, 12.92, 10.64, 0.00, 13.32, 0.000, 0.000, 0.000, 09:24:33.693, 7
71, 12.71, 14.38, 0.00, 12.03, 0.000, 0.000, 0.000, 09:24:33.693, 7
72, 14.59, 15.55, 0.00, 19.53, 0.000, 0.000, 0.000, 09:24:33.693, 7
73, 12.68, 15.20, 0.00, 18.47, 0.000, 0.000, 0.000, 09:24:33.707, 7
74, 11.86, 8.38, 0.00, 10.22, 0.000, 0.000, 0.000, 09:24:33.707, 7
75, 13.20, 13.38, 0.00, 13.08, 0.000, 0.000, 0.000, 09:24:33.737, 7
76, 17.35, 16.07, 0.00, 19.93, 0.000, 0.000, 0.000, 09:24:33.737, 7
77, 21.32, 15.58, 0.00, 16.77, 0.000, 0.000, 0.000, 09:24:33.737, 7
78, 6.93, 9.56, 0.00, 15.31, 0.000, 0.000, 0.000, 09:24:33.738, 7
79, 16.99, 13.95, 0.00, 18.86, 0.000, 0.000, 0.000, 09:24:33.738, 7
80, 18.11, 15.03, 0.00, 18.79, 0.000, 0.000, 0.000, 09:24:33.738, 7
81, 12.88, 16.89, 0.00, 22.41, 0.000, 0.000, 0.000, 09:24:33.739, 7
82, 10.32, 11.06, 0.00, 15.89, 0.000, 0.000, 0.000, 09:24:33.739, 7
83, 11.56, 10.84, 0.00, 13.76, 0.000, 0.000, 0.000, 09:24:33.783, 7
84, 16.32, 17.00, 0.00, 20.95, 0.000, 0.000, 0.000, 09:24:33.784, 7
85, 16.78, 15.53, 0.00, 20.26, 0.000, 0.000, 0.000, 09:24:33.784, 7
86, 13.56, 7.17, 0.00, 10.88, 0.000, 0.000, 0.000, 09:24:33.784, 7
87, 16.14, 15.20, 0.00, 11.51, 0.000, 0.000, 0.000, 09:24:33.785, 7
88, 16.35, 15.52, 0.00, 21.10, 0.000, 0.000, 0.000, 09:24:33.785, 7
89, 14.30, 15.65, 0.00, 15.27, 0.000, 0.000, 0.000, 09:24:33.786, 7
90, 15.69, 13.04, 0.00, 14.86, 0.000, 0.000, 0.000, 09:24:33.786, 7
91, 12.91, 10.47, 0.00, 16.59, 0.000, 0.000, 0.000, 09:24:33.797, 7
92, 18.81, 16.10, 0.00, 15.77, 0.000, 0.000, 0.000, 09:24:33.797, 7
93, 18.20, 17.77, 0.00, 20.50, 0.000, 0.000, 0.000, 09:24:33.812, 7
94, 12.33, 12.05, 0.00, 10.94, 0.000, 0.000, 0.000, 09:24:33.813, 7
95, 12.58, 9.80, 0.00, 16.06, 0.000, 0.000, 0.000, 09:24:33.819, 7
96, 16.14, 13.49, 0.00, 18.55, 0.000, 0.000, 0.000, 09:24:33.819, 7
97, 19.72, 18.20, 0.00, 22.16, 0.000, 0.000, 0.000, 09:24:33.827, 7
98, 11.88, 11.94, 0.00, 11.75, 0.000, 0.000, 0.000, 09:24:33.827, 7
99, 10.97, 9.74, 0.00, 14.42, 0.000, 0.000, 0.000, 09:24:33.856, 7
100, 18.49, 14.30, 0.00, 17.69, 0.000, 0.000, 0.000, 09:24:33.856, 7
101, 14.35, 17.66, 0.00, 19.71, 0.000, 0.000, 0.000, 09:24:33.857, 7
102, 11.80, 8.87, 0.00, 12.31, 0.000, 0.000, 0.000, 09:24:33.857, 7
103, 13.41, 13.39, 0.00, 15.93, 0.000, 0.000, 0.000, 09:24:33.857, 7
104, 15.42, 15.47, 0.00, 16.64, 0.000, 0.000, 0.000, 09:24:33.858, 7
105, 17.49, 17.79, 0.00, 24.82, 0.000, 0.000, 0.000, 09:24:33.858, 7
106, 11.76, 7.96, 0.00, 14.76, 0.000, 0.000, 0.000, 09:24:33.858, 7
107, 12.37, 10.72, 0.00, 12.54, 0.000, 0.000, 0.000, 09:24:33.886, 7
108, 13.11, 14.69, 0.00, 16.63, 0.000, 0.000, 0.000, 09:24:33.886, 7
109, 17.44, 10.25, 0.00, 17.42, 0.000, 0.000, 0.000, 09:24:33.887, 7
110, 10.92, 8.76, 0.00, 8.13, 0.000, 0.000, 0.000, 09:24:33.887, 7
111, 14.14, 14.15, 0.00, 12.25, 0.000, 0.000, 0.000, 09:24:33.901, 7
112, 16.93, 20.01, 0.00, 18.23, 0.000, 0.000, 0.000, 09:24:33.902, 7
113, 14.11, 12.05, 0.00, 16.03, 0.000, 0.000, 0.000, 09:24:33.902, 7
114, 13.70, 10.69, 0.00, 11.20, 0.000, 0.000, 0.000, 09:24:33.902, 7
115, 14.63, 13.79, 0.00, 16.81, 0.000, 0.000, 0.000, 09:24:33.917, 7
116, 15.44, 12.86, 0.00, 16.36, 0.000, 0.000, 0.000, 09:24:33.917, 7
117, 21.54, 19.07, 0.00, 19.05, 0.000, 0.000, 0.000, 09:24:33.932, 7
118, 11.79, 9.34, 0.00, 13.32, 0.000, 0.000, 0.000, 09:24:33.932, 7
119, 9.67, 7.65, 0.00, 9.53, 0.000, 0.000, 0.000, 09:24:33.933, 7
120, 18.83, 16.12, 0.00, 20.92, 0.000, 0.000, 0.000, 09:24:33.933, 7
121, 19.71, 17.55, 0.00, 22.21, 0.000, 0.000, 0.000, 09:24:33.947, 7
122, 13.25, 11.20, 0.00, 13.50, 0.000, 0.000, 0.000, 09:24:33.947, 7
123, 13.04, 16.24, 0.00, 17.83, 0.000, 0.000, 0.000, 09:24:33.977, 7
124, 17.55, 15.67, 0.00, 19.40, 0.000, 0.000, 0.000, 09:24:33.978, 7
125, 15.45, 14.15, 0.00, 10.88, 0.000, 0.000, 0.000, 09:24:33.979, 7
126, 8.55, 5.90, 0.00, 10.64, 0.000, 0.000, 0.000, 09:24:33.979, 7
127, 14.72, 13.52, 0.00, 18.91, 0.000, 0.000, 0.000, 09:24:33.980, 7
128, 12.06, 12.80, 0.00, 17.34, 0.000, 0.000, 0.000, 09:24:33.980, 7
129, 14.63, 12.60, 0.00, 17.91, 0.000, 0.000, 0.000, 09:24:33.980, 7
130, 11.73, 10.12, 0.00, 12.63, 0.000, 0.000, 0.000, 09:24:33.980, 7
131, 10.03, 12.53, 0.00, 11.37, 0.000, 0.000, 0.000, 09:24:34.007, 7
132, 19.06, 18.99, 0.00, 19.03, 0.000, 0.000, 0.000, 09:24:34.007, 7
133, 16.42, 12.81, 0.00, 17.08, 0.000, 0.000, 0.000, 09:24:34.008, 7
134, 8.71, 8.35, 0.00, 10.48, 0.000, 0.000, 0.000, 09:24:34.008, 7
135, 15.55, 15.25, 0.00, 17.67, 0.000, 0.000, 0.000, 09:24:34.022, 7
136, 17.99, 14.66, 0.00, 17.35, 0.000, 0.000, 0.000, 09:24:34.022, 7
137, 19.37, 11.09, 0.00, 17.39, 0.000, 0.000, 0.000, 09:24:34.022, 7
138, 12.06, 13.76, 0.00, 15.37, 0.000, 0.000, 0.000, 09:24:34.022, 7
139, 13.39, 12.01, 0.00, 16.34, 0.000, 0.000, 0.000, 09:24:34.052, 7
140, 17.50, 12.93, 0.00, 17.99, 0.000, 0.000, 0.000, 09:24:34.053, 7
141, 18.13, 17.48, 0.00, 20.75, 0.000, 0.000, 0.000, 09:24:34.053, 7
142, 11.53, 12.04, 0.00, 15.24, 0.000, 0.000, 0.000, 09:24:34.053, 7
143, 11.31, 10.81, 0.00, 12.12, 0.000, 0.000, 0.000, 09:24:34.068, 7
144, 18.27, 16.14, 0.00, 17.17, 0.000, 0.000, 0.000, 09:24:34.068, 7
145, 14.10, 12.98, 0.00, 13.45, 0.000, 0.000, 0.000, 09:24:34.069, 7
146, 9.98, 6.16, 0.00, 11.82, 0.000, 0.000, 0.000, 09:24:34.069, 7
147, 16.00, 18.61, 0.00, 16.03, 0.000, 0.000, 0.000, 09:24:34.086, 7
148, 20.29, 18.61, 0.00, 20.76, 0.000, 0.000, 0.000, 09:24:34.088, 7
149, 14.47, 11.25, 0.00, 16.90, 0.000, 0.000, 0.000, 09:24:34.099, 7
150, 10.55, 9.44, 0.00, 15.79, 0.000, 0.000, 0.000, 09:24:34.100, 7
151, 14.52, 14.73, 0.00, 17.04, 0.000, 0.000, 0.000, 09:24:34.101, 7
152, 16.36, 17.12, 0.00, 18.39, 0.000, 0.000, 0.000, 09:24:34.102, 7
153, 14.32, 13.24, 0.00, 17.40, 0.000, 0.000, 0.000, 09:24:34.127, 7
154, 8.58, 6.94, 0.00, 11.18, 0.000, 0.000, 0.000, 09:24:34.127, 7
155, 12.07, 7.92, 0.00, 8.54, 0.000, 0.000, 0.000, 09:24:34.128, 7
156, 16.86, 20.61, 0.00, 19.00, 0.000, 0.000, 0.000, 09:24:34.128, 7
157, 15.20, 16.52, 0.00, 16.24, 0.000, 0.000, 0.000, 09:24:34.130, 7
158, 9.19, 5.78, 0.00, 12.41, 0.000, 0.000, 0.000, 09:24:34.131, 7
159, 15.27, 10.88, 0.00, 16.36, 0.000, 0.000, 0.000, 09:24:34.133, 7
160, 19.48, 16.76, 0.00, 22.45, 0.000, 0.000, 0.000, 09:24:34.134, 7
161, 15.32, 13.50, 0.00, 17.22, 0.000, 0.000, 0.000, 09:24:34.142, 7
162, 10.35, 9.69, 0.00, 13.12, 0.000, 0.000, 0.000, 09:24:34.142, 7
163, 13.92, 13.21, 0.00, 11.29, 0.000, 0.000, 0.000, 09:24:34.171, 7
164, 14.77, 16.80, 0.00, 17.96, 0.000, 0.000, 0.000, 09:24:34.171, 7
165, 14.91, 15.40, 0.00, 15.60, 0.000, 0.000, 0.000, 09:24:34.172, 7
166, 9.23, 14.22, 0.00, 10.39, 0.000, 0.000, 0.000, 09:24:34.172, 7
167, 11.06, 10.42, 0.00, 7.18, 0.000, 0.000, 0.000, 09:24:34.173, 7
168, 16.82, 16.26, 0.00, 22.20, 0.000, 0.000, 0.000, 09:24:34.173, 7
169, 19.57, 14.85, 0.00, 22.96, 0.000, 0.000, 0.000, 09:24:34.186, 7
170, 16.78, 10.34, 0.00, 11.36, 0.000, 0.000, 0.000, 09:24:34.186, 7
171, 16.38, 15.05, 0.00, 17.94, 0.000, 0.000, 0.000, 09:24:34.201, 7
172, 15.82, 19.64, 0.00, 23.29, 0.000, 0.000, 0.000, 09:24:34.202, 7
173, 21.62, 14.22, 0.00, 19.36, 0.000, 0.000, 0.000, 09:24:34.216, 7
174, 12.85, 9.75, 0.00, 14.87, 0.000, 0.000, 0.000, 09:24:34.216, 7
175, 11.21, 10.47, 0.00, 16.89, 0.000, 0.000, 0.000, 09:24:34.217, 7
176, 13.97, 14.85, 0.00, 18.64, 0.000, 0.000, 0.000, 09:24:34.217, 7
177, 12.92, 11.67, 0.00, 20.17, 0.000, 0.000, 0.000, 09:24:34.232, 7
178, 10.46, 9.97, 0.00, 9.33, 0.000, 0.000, 0.000, 09:24:34.232, 7
179, 15.93, 9.61, 0.00, 14.10, 0.000, 0.000, 0.000, 09:24:34.247, 7
180, 18.81, 18.78, 0.00, 24.53, 0.000, 0.000, 0.000, 09:24:34.247, 7
181, 19.49, 13.71, 0.00, 20.71, 0.000, 0.000, 0.000, 09:24:34.247, 7
182, 8.11, 8.87, 0.00, 9.29, 0.000, 0.000, 0.000, 09:24:34.248, 7
183, 14.28, 13.78, 0.00, 16.11, 0.000, 0.000, 0.000, 09:24:34.262, 7
184, 14.83, 17.15, 0.00, 16.25, 0.000, 0.000, 0.000, 09:24:34.262, 7
185, 9.87, 10.47, 0.00, 13.14, 0.000, 0.000, 0.000, 09:24:34.263, 7
186, 8.10, 12.12, 0.00, 10.86, 0.000, 0.000, 0.000, 09:24:34.263, 7
187, 15.95, 17.08, 0.00, 14.48, 0.000, 0.000, 0.000, 09:24:34.276, 7
188, 19.71, 15.67, 0.00, 17.07, 0.000, 0.000, 0.000, 09:24:34.276, 7
189, 15.73, 10.92, 0.00, 19.73, 0.000, 0.000, 0.000, 09:24:34.291, 7
190, 13.66, 12.81, 0.00, 14.89, 0.000, 0.000, 0.000, 09:24:34.291, 7
191, 13.63, 13.14, 0.00, 16.17, 0.000, 0.000, 0.000, 09:24:34.299, 7
192, 19.06, 16.42, 0.00, 21.55, 0.000, 0.000, 0.000, 09:24:34.299, 7
193, 16.45, 16.31, 0.00, 16.96, 0.000, 0.000, 0.000, 09:24:34.306, 7
194, 10.58, 7.19, 0.00, 12.23, 0.000, 0.000, 0.000, 09:24:34.306, 7
195, 11.60, 9.04, 0.00, 13.89, 0.000, 0.000, 0.000, 09:24:34.322, 7
196, 11.58, 13.93, 0.00, 20.94, 0.000, 0.000, 0.000, 09:24:34.322, 7
197, 16.96, 16.95, 0.00, 18.20, 0.000, 0.000, 0.000, 09:24:34.337, 7
198, 13.88, 8.61, 0.00, 11.67, 0.000, 0.000, 0.000, 09:24:34.337, 7
199, 10.74, 9.78, 0.00, 16.60, 0.000, 0.000, 0.000, 09:24:34.338, 7
200, 13.66, 13.70, 0.00, 12.78, 0.000, 0.000, 0.000, 09:24:34.338, 7
0, 12.84, 16.48, 0.00, 18.84, 0.000, 0.000, 0.000, 09:24:34.338, 7
1, 11.23, 8.16, 0.00, 13.94, 0.000, 0.000, 0.000, 09:24:34.352, 7
2, 13.46, 13.27, 0.00, 11.01, 0.000, 0.000, 0.000, 09:24:34.352, 7
3, 19.18, 18.90, 0.00, 21.54, 0.000, 0.000, 0.000, 09:24:34.367, 7
4, 15.51, 13.34, 0.00, 16.26, 0.000, 0.000, 0.000, 09:24:34.367, 7
5, 12.09, 9.70, 0.00, 7.72, 0.000, 0.000, 0.000, 09:24:34.367, 7
6, 15.11, 16.19, 0.00, 19.18, 0.000, 0.000, 0.000, 09:24:34.367, 7
7, 19.22, 16.92, 0.00, 19.40, 0.000, 0.000, 0.000, 09:24:34.383, 7
8, 11.81, 11.68, 0.00, 15.04, 0.000, 0.000, 0.000, 09:24:34.383, 7
9, 9.92, 11.36, 0.00, 13.97, 0.000, 0.000, 0.000, 09:24:34.412, 7
10, 14.30, 12.40, 0.00, 17.09, 0.000, 0.000, 0.000, 09:24:34.413, 7
11, 18.91, 13.32, 0.00, 18.07, 0.000, 0.000, 0.000, 09:24:34.413, 7
12, 18.83, 13.72, 0.00, 19.32, 0.000, 0.000, 0.000, 09:24:34.413, 7
13, 16.68, 11.87, 0.00, 12.13, 0.000, 0.000, 0.000, 09:24:34.413, 7
14, 11.65, 11.00, 0.00, 14.92, 0.000, 0.000, 0.000, 09:24:34.413, 7
15, 15.19, 18.30, 0.00, 19.10, 0.000, 0.000, 0.000, 09:24:34.414, 7
16, 16.57, 15.25, 0.00, 17.75, 0.000, 0.000, 0.000, 09:24:34.415, 7
17, 14.91, 11.16, 0.00, 10.85, 0.000, 0.000, 0.000, 09:24:34.427, 7
18, 14.23, 12.50, 0.00, 17.42, 0.000, 0.000, 0.000, 09:24:34.427, 7
19, 20.98, 16.29, 0.00, 17.48, 0.000, 0.000, 0.000, 09:24:34.442, 7
20, 14.53, 10.77, 0.00, 14.56, 0.000, 0.000, 0.000, 09:24:34.442, 7
21, 10.99, 9.63, 0.00, 14.77, 0.000, 0.000, 0.000, 09:24:34.457, 7
22, 16.48, 18.62, 0.00, 17.36, 0.000, 0.000, 0.000, 09:24:34.458, 7
23, 14.52, 13.47, 0.00, 15.49, 0.000, 0.000, 0.000, 09:24:34.458, 7
24, 17.77, 14.41, 0.00, 21.09, 0.000, 0.000, 0.000, 09:24:34.458, 7
25, 10.97, 9.91, 0.00, 14.48, 0.000, 0.000, 0.000, 09:24:34.472, 7
26, 14.84, 11.79, 0.00, 11.36, 0.000, 0.000, 0.000, 09:24:34.472, 7
27, 13.56, 20.34, 0.00, 19.86, 0.000, 0.000, 0.000, 09:24:34.487, 7
28, 16.14, 12.75, 0.00, 20.95, 0.000, 0.000, 0.000, 09:24:34.487, 7
29, 13.42, 8.68, 0.00, 11.71, 0.000, 0.000, 0.000, 09:24:34.488, 7
30, 15.62, 12.42, 0.00, 18.97, 0.000, 0.000, 0.000, 09:24:34.488, 7
31, 16.78, 11.65, 0.00, 22.95, 0.000, 0.000, 0.000, 09:24:34.502, 7
32, 14.70, 7.73, 0.00, 15.23, 0.000, 0.000, 0.000, 09:24:34.502, 7
33, 7.12, 10.90, 0.00, 12.74, 0.000, 0.000, 0.000, 09:24:34.533, 7
34, 16.18, 15.27, 0.00, 16.85, 0.000, 0.000, 0.000, 09:24:34.534, 7
35, 18.85, 16.78, 0.00, 19.15, 0.000, 0.000, 0.000, 09:24:34.535, 7
36, 15.74, 15.67, 0.00, 18.42, 0.000, 0.000, 0.000, 09:24:34.535, 7
37, 8.11, 10.73, 0.00, 12.86, 0.000, 0.000, 0.000, 09:24:34.535, 7
38, 15.06, 14.34, 0.00, 14.88, 0.000, 0.000, 0.000, 09:24:34.536, 7
39, 17.65, 22.10, 0.00, 20.28, 0.000, 0.000, 0.000, 09:24:34.536, 7
40, 19.96, 12.40, 0.00, 15.95, 0.000, 0.000, 0.000, 09:24:34.536, 7
41, 10.07, 13.95, 0.00, 13.93, 0.000, 0.000, 0.000, 09:24:34.562, 7
42, 12.92, 15.89, 0.00, 14.81, 0.000, 0.000, 0.000, 09:24:34.562, 7
43, 20.83, 19.05, 0.00, 20.66, 0.000, 0.000, 0.000, 09:24:34.564, 7
44, 12.37, 9.33, 0.00, 13.39, 0.000, 0.000, 0.000, 09:24:34.564, 7
45, 11.10, 8.64, 0.00, 10.73, 0.000, 0.000, 0.000, 09:24:34.577, 7
46, 15.06, 11.38, 0.00, 15.30, 0.000, 0.000, 0.000, 09:24:34.577, 7
47, 12.21, 11.93, 0.00, 11.49, 0.000, 0.000, 0.000, 09:24:34.578, 7
48, 15.28, 14.21, 0.00, 17.98, 0.000, 0.000, 0.000, 09:24:34.578, 7
49, 10.83, 9.53, 0.00, 12.12, 0.000, 0.000, 0.000, 09:24:34.592, 7
50, 13.64, 12.15, 0.00, 14.97, 0.000, 0.000, 0.000, 09:24:34.592, 7
51, 20.70, 21.17, 0.00, 23.01, 0.000, 0.000, 0.000, 09:24:34.607, 7
52, 14.16, 13.13, 0.00, 16.02, 0.000, 0.000, 0.000, 09:24:34.607, 7
53, 10.78, 10.29, 0.00, 13.60, 0.000, 0.000, 0.000, 09:24:34.607, 7
54, 17.13, 10.95, 0.00, 15.05, 0.000, 0.000, 0.000, 09:24:34.607, 7
55, 18.69, 15.01, 0.00, 20.72, 0.000, 0.000, 0.000, 09:24:34.621, 7
56, 14.47, 13.99, 0.00, 13.61, 0.000, 0.000, 0.000, 09:24:34.622, 7
57, 8.44, 12.23, 0.00, 10.29, 0.000, 0.000, 0.000, 09:24:34.637, 7
58, 14.46, 14.64, 0.00, 20.74, 0.000, 0.000, 0.000, 09:24:34.637, 7
59, 14.34, 12.27, 0.00, 15.08, 0.000, 0.000, 0.000, 09:24:34.637, 7
60, 12.09, 13.62, 0.00, 16.97, 0.000, 0.000, 0.000, 09:24:34.638, 7
61, 10.88, 10.27, 0.00, 16.00, 0.000, 0.000, 0.000, 09:24:34.653, 7
62, 17.38, 14.82, 0.00, 15.11, 0.000, 0.000, 0.000, 09:24:34.653, 7
63, 16.02, 19.58, 0.00, 22.11, 0.000, 0.000, 0.000, 09:24:34.682, 7
64, 14.46, 14.77, 0.00, 18.10, 0.000, 0.000, 0.000, 09:24:34.682, 7
65, 9.46, 9.98, 0.00, 10.35, 0.000, 0.000, 0.000, 09:24:34.686, 7
66, 13.25, 13.92, 0.00, 15.94, 0.000, 0.000, 0.000, 09:24:34.687, 7
67, 18.69, 16.58, 0.00, 19.15, 0.000, 0.000, 0.000, 09:24:34.688, 7
68, 15.47, 6.67, 0.00, 11.01, 0.000, 0.000, 0.000, 09:24:34.689, 7
69, 10.98, 10.37, 0.00, 9.77, 0.000, 0.000, 0.000, 09:24:34.689, 7
70, 15.08, 11.70, 0.00, 19.33, 0.000, 0.000, 0.000, 09:24:34.689, 7
71, 21.99, 14.71, 0.00, 18.88, 0.000, 0.000, 0.000, 09:24:34.697, 7
72, 13.46, 12.64, 0.00, 18.23, 0.000, 0.000, 0.000, 09:24:34.698, 7
73, 13.84, 13.07, 0.00, 15.93, 0.000, 0.000, 0.000, 09:24:34.728, 7
74, 13.92, 12.38, 0.00, 12.74, 0.000, 0.000, 0.000, 09:24:34.728, 7
75, 16.25, 14.55, 0.00, 19.16, 0.000, 0.000, 0.000, 09:24:34.731, 7
76, 13.16, 16.08, 0.00, 15.83, 0.000, 0.000, 0.000, 09:24:34.731, 7
77, 12.05, 9.79, 0.00, 6.12, 0.000, 0.000, 0.000, 09:24:34.731, 7
78, 14.38, 14.21, 0.00, 19.51, 0.000, 0.000, 0.000, 09:24:34.732, 7
79, 18.32, 16.66, 0.00, 25.36, 0.000, 0.000, 0.000, 09:24:34.743, 7
80, 12.05, 12.47, 0.00, 12.03, 0.000, 0.000, 0.000, 09:24:34.743, 7
81, 12.84, 9.06, 0.00, 14.25, 0.000, 0.000, 0.000, 09:24:34.758, 7
82, 17.49, 13.20, 0.00, 20.19, 0.000, 0.000, 0.000, 09:24:34.758, 7
83, 19.69, 13.64, 0.00, 23.67, 0.000, 0.000, 0.000, 09:24:34.759, 7
84, 12.78, 13.06, 0.00, 18.04, 0.000, 0.000, 0.000, 09:24:34.759, 7
85, 10.83, 13.61, 0.00, 10.49, 0.000, 0.000, 0.000, 09:24:34.787, 7
86, 12.65, 11.59, 0.00, 13.87, 0.000, 0.000, 0.000, 09:24:34.787, 7
87, 16.15, 20.72, 0.00, 20.65, 0.000, 0.000, 0.000, 09:24:34.802, 7
88, 13.46, 14.10, 0.00, 16.09, 0.000, 0.000, 0.000, 09:24:34.802, 7
89, 13.46, 9.16, 0.00, 10.50, 0.000, 0.000, 0.000, 09:24:34.802, 7
90, 13.85, 13.81, 0.00, 16.56, 0.000, 0.000, 0.000, 09:24:34.803, 7
91, 18.39, 23.78, 0.00, 21.13, 0.000, 0.000, 0.000, 09:24:34.803, 7
92, 11.47, 12.36, 0.00, 14.56, 0.000, 0.000, 0.000, 09:24:34.803, 7
93, 12.70, 12.55, 0.00, 11.99, 0.000, 0.000, 0.000, 09:24:34.804, 7
94, 12.82, 12.94, 0.00, 17.47, 0.000, 0.000, 0.000, 09:24:34.804, 7
95, 21.84, 18.48, 0.00, 22.45, 0.000, 0.000, 0.000, 09:24:34.817, 7
96, 14.48, 15.34, 0.00, 17.57, 0.000, 0.000, 0.000, 09:24:34.817, 7
97, 12.50, 10.64, 0.00, 12.48, 0.000, 0.000, 0.000, 09:24:34.847, 7
98, 15.02, 10.04, 0.00, 12.27, 0.000, 0.000, 0.000, 09:24:34.848, 7
99, 18.18, 16.76, 0.00, 19.62, 0.000, 0.000, 0.000, 09:24:34.849, 7
100, 10.50, 14.13, 0.00, 13.25, 0.000, 0.000, 0.000, 09:24:34.849, 7
101, 9.76, 3.99, 0.00, 13.32, 0.000, 0.000, 0.000, 09:24:34.849, 7
102, 13.21, 13.62, 0.00, 16.86, 0.000, 0.000, 0.000, 09:24:34.849, 7
103, 15.88, 15.14, 0.00, 21.60, 0.000, 0.000, 0.000, 09:24:34.863, 7
104, 13.16, 10.78, 0.00, 10.11, 0.000, 0.000, 0.000, 09:24:34.864, 7
105, 11.45, 10.77, 0.00, 17.97, 0.000, 0.000, 0.000, 09:24:34.877, 7
106, 14.58, 10.90, 0.00, 17.99, 0.000, 0.000, 0.000, 09:24:34.877, 7
107, 19.54, 15.07, 0.00, 14.92, 0.000, 0.000, 0.000, 09:24:34.880, 7
108, 15.88, 9.22, 0.00, 16.26, 0.000, 0.000, 0.000, 09:24:34.880, 7
109, 10.48, 9.16, 0.00, 9.98, 0.000, 0.000, 0.000, 09:24:34.892, 7
110, 13.77, 10.33, 0.00, 13.77, 0.000, 0.000, 0.000, 09:24:34.892, 7
111, 18.81, 17.52, 0.00, 22.84, 0.000, 0.000, 0.000, 09:24:34.907, 7
112, 13.54, 13.33, 0.00, 18.06, 0.000, 0.000, 0.000, 09:24:34.907, 7
113, 13.59, 9.84, 0.00, 10.22, 0.000, 0.000, 0.000, 09:24:34.907, 7
114, 16.14, 14.17, 0.00, 12.06, 0.000, 0.000, 0.000, 09:24:34.907, 7
115, 20.27, 20.86, 0.00, 20.63, 0.000, 0.000, 0.000, 09:24:34.922, 7
116, 12.28, 12.37, 0.00, 12.26, 0.000, 0.000, 0.000, 09:24:34.922, 7
117, 13.73, 11.64, 0.00, 14.36, 0.000, 0.000, 0.000, 09:24:34.937, 7
118, 15.01, 12.73, 0.00, 15.80, 0.000, 0.000, 0.000, 09:24:34.937, 7
119, 15.56, 16.17, 0.00, 21.58, 0.000, 0.000, 0.000, 09:24:34.937, 7
120, 11.39, 10.37, 0.00, 13.34, 0.000, 0.000, 0.000, 09:24:34.937, 7
121, 11.33, 8.07, 0.00, 13.19, 0.000, 0.000, 0.000, 09:24:34.967, 7
122, 15.97, 14.36, 0.00, 15.09, 0.000, 0.000, 0.000, 09:24:34.967, 7
123, 18.10, 20.44, 0.00, 19.10, 0.000, 0.000, 0.000, 09:24:34.968, 7
124, 17.40, 12.85, 0.00, 19.73, 0.000, 0.000, 0.000, 09:24:34.968, 7
125, 8.98, 4.36, 0.00, 11.18, 0.000, 0.000, 0.000, 09:24:34.968, 7
126, 17.07, 15.69, 0.00, 17.48, 0.000, 0.000, 0.000, 09:24:34.968, 7
127, 19.31, 19.79, 0.00, 19.06, 0.000, 0.000, 0.000, 09:24:34.997, 7
128, 12.47, 10.35, 0.00, 13.78, 0.000, 0.000, 0.000, 09:24:34.997, 7
129, 9.69, 8.51, 0.00, 15.97, 0.000, 0.000, 0.000, 09:24:34.998, 7
130, 14.55, 13.00, 0.00, 12.68, 0.000, 0.000, 0.000, 09:24:34.999, 7
131, 14.74, 15.38, 0.00, 17.48, 0.000, 0.000, 0.000, 09:24:35.004, 7
132, 13.11, 15.35, 0.00, 15.36, 0.000, 0.000, 0.000, 09:24:35.004, 7
133, 12.81, 12.00, 0.00, 13.26, 0.000, 0.000, 0.000, 09:24:35.012, 7
134, 15.02, 11.48, 0.00, 14.43, 0.000, 0.000, 0.000, 09:24:35.013, 7
135, 19.41, 17.32, 0.00, 21.07, 0.000, 0.000, 0.000, 09:24:35.027, 7
136, 9.79, 10.11, 0.00, 16.25, 0.000, 0.000, 0.000, 09:24:35.027, 7
137, 13.23, 13.36, 0.00, 10.15, 0.000, 0.000, 0.000, 09:24:35.035, 7
138, 14.51, 13.61, 0.00, 17.76, 0.000, 0.000, 0.000, 09:24:35.035, 7
139, 17.51, 18.45, 0.00, 22.55, 0.000, 0.000, 0.000, 09:24:35.041, 7
140, 15.27, 10.46, 0.00, 13.80, 0.000, 0.000, 0.000, 09:24:35.044, 7
141, 14.96, 13.25, 0.00, 13.01, 0.000, 0.000, 0.000, 09:24:35.056, 7
142, 16.27, 15.35, 0.00, 16.48, 0.000, 0.000, 0.000, 09:24:35.056, 7
143, 18.08, 15.34, 0.00, 19.14, 0.000, 0.000, 0.000, 09:24:35.087, 7
144, 12.39, 12.64, 0.00, 15.61, 0.000, 0.000, 0.000, 09:24:35.087, 7
145, 8.08, 5.91, 0.00, 9.00, 0.000, 0.000, 0.000, 09:24:35.088, 7
146, 13.74, 10.10, 0.00, 16.84, 0.000, 0.000, 0.000, 09:24:35.088, 7
147, 16.53, 17.58, 0.00, 22.16, 0.000, 0.000, 0.000, 09:24:35.088, 7
148, 13.30, 14.38, 0.00, 16.16, 0.000, 0.000, 0.000, 09:24:35.088, 7
149, 11.44, 9.87, 0.00, 11.48, 0.000, 0.000, 0.000, 09:24:35.089, 7
150, 18.11, 15.82, 0.00, 21.49, 0.000, 0.000, 0.000, 09:24:35.090, 7
151, 18.80, 15.94, 0.00, 22.20, 0.000, 0.000, 0.000, 09:24:35.117, 7
152, 16.81, 11.83, 0.00, 13.88, 0.000, 0.000, 0.000, 09:24:35.117, 7
153, 8.58, 15.27, 0.00, 9.39, 0.000, 0.000, 0.000, 09:24:35.117, 7
154, 14.56, 19.11, 0.00, 20.17, 0.000, 0.000, 0.000, 09:24:35.117, 7
155, 13.79, 15.83, 0.00, 17.41, 0.000, 0.000, 0.000, 09:24:35.118, 7
156, 10.83, 11.31, 0.00, 12.74, 0.000, 0.000, 0.000, 09:24:35.118, 7
157, 13.06, 9.13, 0.00, 13.97, 0.000, 0.000, 0.000, 09:24:35.133, 7
158, 14.33, 14.39, 0.00, 15.94, 0.000, 0.000, 0.000, 09:24:35.133, 7
159, 20.27, 18.53, 0.00, 22.76, 0.000, 0.000, 0.000, 09:24:35.163, 7
160, 12.09, 9.67, 0.00, 16.61, 0.000, 0.000, 0.000, 09:24:35.163, 7
161, 8.37, 8.28, 0.00, 8.15, 0.000, 0.000, 0.000, 09:24:35.163, 7
162, 10.66, 13.88, 0.00, 15.52, 0.000, 0.000, 0.000, 09:24:35.164, 7
163, 19.23, 19.03, 0.00, 19.06, 0.000, 0.000, 0.000, 09:24:35.166, 7
164, 12.26, 10.91, 0.00, 10.81, 0.000, 0.000, 0.000, 09:24:35.166, 7
165, 10.62, 13.52, 0.00, 14.57, 0.000, 0.000, 0.000, 09:24:35.167, 7
166, 15.93, 15.96, 0.00, 19.72, 0.000, 0.000, 0.000, 09:24:35.167, 7
167, 15.85, 17.84, 0.00, 17.09, 0.000, 0.000, 0.000, 09:24:35.177, 7
168, 16.04, 10.53, 0.00, 13.56, 0.000, 0.000, 0.000, 09:24:35.177, 7
169, 12.28, 11.72, 0.00, 13.97, 0.000, 0.000, 0.000, 09:24:35.192, 7
170, 16.91, 14.57, 0.00, 18.26, 0.000, 0.000, 0.000, 09:24:35.192, 7
171, 16.35, 19.88, 0.00, 18.72, 0.000, 0.000, 0.000, 09:24:35.207, 7
172, 14.07, 12.41, 0.00, 11.63, 0.000, 0.000, 0.000, 09:24:35.207, 7
173, 10.11, 8.05, 0.00, 11.54, 0.000, 0.000, 0.000, 09:24:35.207, 7
174, 13.93, 12.62, 0.00, 18.83, 0.000, 0.000, 0.000, 09:24:35.207, 7
175, 19.52, 13.35, 0.00, 19.05, 0.000, 0.000, 0.000, 09:24:35.237, 7
176, 7.60, 7.26, 0.00, 11.36, 0.000, 0.000, 0.000, 09:24:35.237, 7
177, 15.76, 11.56, 0.00, 16.86, 0.000, 0.000, 0.000, 09:24:35.237, 7
178, 15.98, 13.27, 0.00, 16.17, 0.000, 0.000, 0.000, 09:24:35.237, 7
179, 16.29, 16.51, 0.00, 20.74, 0.000, 0.000, 0.000, 09:24:35.238, 7
180, 14.77, 14.26, 0.00, 17.66, 0.000, 0.000, 0.000, 09:24:35.238, 7
181, 15.54, 12.48, 0.00, 16.48, 0.000, 0.000, 0.000, 09:24:35.252, 7
182, 15.03, 14.37, 0.00, 14.35, 0.000, 0.000, 0.000, 09:24:35.252, 7
183, 19.10, 16.71, 0.00, 21.47, 0.000, 0.000, 0.000, 09:24:35.282, 7
184, 11.21, 10.19, 0.00, 18.99, 0.000, 0.000, 0.000, 09:24:35.283, 7
185, 12.61, 9.78, 0.00, 11.90, 0.000, 0.000, 0.000, 09:24:35.285, 7
186, 21.61, 15.29, 0.00, 18.77, 0.000, 0.000, 0.000, 09:24:35.285, 7
187, 17.29, 19.14, 0.00, 23.34, 0.000, 0.000, 0.000, 09:24:35.286, 7
188, 12.87, 10.91, 0.00, 11.59, 0.000, 0.000, 0.000, 09:24:35.286, 7
189, 11.98, 8.01, 0.00, 13.65, 0.000, 0.000, 0.000, 09:24:35.287, 7
190, 16.36, 13.18, 0.00, 19.63, 0.000, 0.000, 0.000, 09:24:35.288, 7
191, 18.09, 16.30, 0.00, 18.74, 0.000, 0.000, 0.000, 09:24:35.297, 7
192, 10.08, 8.86, 0.00, 12.97, 0.000, 0.000, 0.000, 09:24:35.298, 7
193, 14.89, 10.87, 0.00, 16.69, 0.000, 0.000, 0.000, 09:24:35.312, 7
194, 14.31, 13.75, 0.00, 18.74, 0.000, 0.000, 0.000, 09:24:35.313, 7
195, 17.69, 11.32, 0.00, 18.83, 0.000, 0.000, 0.000, 09:24:35.327, 7
196, 15.92, 14.62, 0.00, 13.20, 0.000, 0.000, 0.000, 09:24:35.327, 7
197, 10.11, 10.90, 0.00, 9.79, 0.000, 0.000, 0.000, 09:24:35.327, 7
198, 13.61, 14.27, 0.00, 19.79, 0.000, 0.000, 0.000, 09:24:35.327, 7
199, 14.28, 19.20, 0.00, 20.79, 0.000, 0.000, 0.000, 09:24:35.342, 7
200, 12.81, 6.33, 0.00, 13.46, 0.000, 0.000, 0.000, 09:24:35.342, 7
0, 13.81, 13.06, 0.00, 17.00, 0.000, 0.000, 0.000, 09:24:35.342, 7
1, 14.77, 18.73, 0.00, 18.99, 0.000, 0.000, 0.000, 09:24:35.358, 7
2, 15.44, 16.41, 0.00, 14.14, 0.000, 0.000, 0.000, 09:24:35.358, 7
3, 13.60, 11.23, 0.00, 16.66, 0.000, 0.000, 0.000, 09:24:35.372, 7
4, 10.20, 10.89, 0.00, 13.29, 0.000, 0.000, 0.000, 09:24:35.372, 7
5, 16.38, 15.51, 0.00, 11.97, 0.000, 0.000, 0.000, 09:24:35.373, 7
6, 19.38, 16.63, 0.00, 18.24, 0.000, 0.000, 0.000, 09:24:35.373, 7
7, 14.44, 11.19, 0.00, 12.96, 0.000, 0.000, 0.000, 09:24:35.402, 7
8, 11.83, 6.66, 0.00, 9.59, 0.000, 0.000, 0.000, 09:24:35.402, 7
9, 16.03, 17.70, 0.00, 18.73, 0.000, 0.000, 0.000, 09:24:35.402, 7
10, 16.45, 16.74, 0.00, 19.53, 0.000, 0.000, 0.000, 09:24:35.402, 7
11, 11.41, 9.59, 0.00, 9.86, 0.000, 0.000, 0.000, 09:24:35.403, 7
12, 11.61, 11.66, 0.00, 16.27, 0.000, 0.000, 0.000, 09:24:35.403, 7
13, 17.37, 15.82, 0.00, 21.24, 0.000, 0.000, 0.000, 09:24:35.417, 7
14, 16.24, 17.03, 0.00, 16.76, 0.000, 0.000, 0.000, 09:24:35.417, 7
15, 14.36, 10.79, 0.00, 18.04, 0.000, 0.000, 0.000, 09:24:35.448, 7
16, 12.64, 14.82, 0.00, 16.20, 0.000, 0.000, 0.000, 09:24:35.448, 7
17, 16.38, 13.23, 0.00, 15.81, 0.000, 0.000, 0.000, 09:24:35.449, 7
18, 19.13, 20.59, 0.00, 20.77, 0.000, 0.000, 0.000, 09:24:35.449, 7
19, 12.70, 13.59, 0.00, 9.83, 0.000, 0.000, 0.000, 09:24:35.451, 7
20, 11.94, 7.09, 0.00, 10.98, 0.000, 0.000, 0.000, 09:24:35.451, 7
21, 15.06, 17.74, 0.00, 21.05, 0.000, 0.000, 0.000, 09:24:35.452, 7
22, 16.11, 13.90, 0.00, 17.76, 0.000, 0.000, 0.000, 09:24:35.452, 7
23, 13.26, 8.01, 0.00, 10.30, 0.000, 0.000, 0.000, 09:24:35.463, 7
24, 13.59, 10.85, 0.00, 12.08, 0.000, 0.000, 0.000, 09:24:35.465, 7
25, 15.36, 16.48, 0.00, 22.35, 0.000, 0.000, 0.000, 09:24:35.477, 7
26, 15.01, 12.83, 0.00, 16.90, 0.000, 0.000, 0.000, 09:24:35.477, 7
27, 16.29, 8.94, 0.00, 14.72, 0.000, 0.000, 0.000, 09:24:35.492, 7
28, 11.55, 8.96, 0.00, 13.17, 0.000, 0.000, 0.000, 09:24:35.493, 7
29, 14.34, 15.99, 0.00, 19.95, 0.000, 0.000, 0.000, 09:24:35.493, 7
30, 15.23, 15.37, 0.00, 19.05, 0.000, 0.000, 0.000, 09:24:35.493, 7
31, 11.36, 10.88, 0.00, 16.08, 0.000, 0.000, 0.000, 09:24:35.522, 7
32, 11.37, 10.05, 0.00, 12.61, 0.000, 0.000, 0.000, 09:24:35.522, 7
33, 16.42, 17.04, 0.00, 21.65, 0.000, 0.000, 0.000, 09:24:35.523, 7
34, 17.33, 20.52, 0.00, 19.05, 0.000, 0.000, 0.000, 09:24:35.523, 7
35, 11.87, 6.06, 0.00, 12.29, 0.000, 0.000, 0.000, 09:24:35.523, 7
36, 13.99, 12.57, 0.00, 17.07, 0.000, 0.000, 0.000, 09:24:35.524, 7
37, 17.72, 18.70, 0.00, 17.78, 0.000, 0.000, 0.000, 09:24:35.537, 7
38, 20.27, 13.57, 0.00, 18.90, 0.000, 0.000, 0.000, 09:24:35.537, 7
39, 12.18, 12.08, 0.00, 16.02, 0.000, 0.000, 0.000, 09:24:35.552, 7
40, 10.17, 10.19, 0.00, 14.14, 0.000, 0.000, 0.000, 09:24:35.552, 7
41, 12.29, 12.98, 0.00, 17.10, 0.000, 0.000, 0.000, 09:24:35.553, 7
42, 18.45, 14.41, 0.00, 18.08, 0.000, 0.000, 0.000, 09:24:35.553, 7
43, 11.03, 7.88, 0.00, 14.06, 0.000, 0.000, 0.000, 09:24:35.567, 7
44, 10.50, 10.85, 0.00, 9.53, 0.000, 0.000, 0.000, 09:24:35.568, 7
45, 16.35, 15.11, 0.00, 18.08, 0.000, 0.000, 0.000, 09:24:35.582, 7
46, 16.73, 16.43, 0.00, 17.57, 0.000, 0.000, 0.000, 09:24:35.583, 7
47, 14.12, 10.15, 0.00, 12.47, 0.000, 0.000, 0.000, 09:24:35.585, 7
48, 13.13, 12.70, 0.00, 10.69, 0.000, 0.000, 0.000, 09:24:35.585, 7
49, 17.73, 16.79, 0.00, 21.89, 0.000, 0.000, 0.000, 09:24:35.597, 7
50, 13.67, 13.06, 0.00, 15.41, 0.000, 0.000, 0.000, 09:24:35.597, 7
51, 14.82, 13.49, 0.00, 17.29, 0.000, 0.000, 0.000, 09:24:35.613, 7
52, 14.91, 13.62, 0.00, 13.83, 0.000, 0.000, 0.000, 09:24:35.613, 7
53, 14.27, 16.34, 0.00, 19.20, 0.000, 0.000, 0.000, 09:24:35.614, 7
54, 15.00, 18.18, 0.00, 17.24, 0.000, 0.000, 0.000, 09:24:35.614, 7
55, 15.28, 13.07, 0.00, 15.28, 0.000, 0.000, 0.000, 09:24:35.627, 7
56, 13.54, 7.65, 0.00, 9.28, 0.000, 0.000, 0.000, 09:24:35.627, 7
57, 14.73, 14.52, 0.00, 19.48, 0.000, 0.000, 0.000, 09:24:35.642, 7
58, 17.96, 18.01, 0.00, 20.81, 0.000, 0.000, 0.000, 09:24:35.642, 7
59, 12.02, 10.72, 0.00, 10.52, 0.000, 0.000, 0.000, 09:24:35.650, 7
60, 13.17, 12.72, 0.00, 15.44, 0.000, 0.000, 0.000, 09:24:35.650, 7
61, 18.79, 17.10, 0.00, 18.80, 0.000, 0.000, 0.000, 09:24:35.672, 7
62, 11.85, 12.32, 0.00, 16.29, 0.000, 0.000, 0.000, 09:24:35.672, 7
63, 15.31, 8.98, 0.00, 12.12, 0.000, 0.000, 0.000, 09:24:35.672, 7
64, 13.59, 11.14, 0.00, 15.88, 0.000, 0.000, 0.000, 09:24:35.672, 7
65, 15.30, 14.18, 0.00, 16.88, 0.000, 0.000, 0.000, 09:24:35.673, 7
66, 15.49, 13.35, 0.00, 19.38, 0.000, 0.000, 0.000, 09:24:35.673, 7
67, 11.96, 11.36, 0.00, 12.39, 0.000, 0.000, 0.000, 09:24:35.689, 7
68, 13.05, 10.77, 0.00, 7.87, 0.000, 0.000, 0.000, 09:24:35.689, 7
69, 19.37, 20.70, 0.00, 24.22, 0.000, 0.000, 0.000, 09:24:35.718, 7
70, 15.81, 11.85, 0.00, 17.65, 0.000, 0.000, 0.000, 09:24:35.718, 7
71, 12.32, 9.07, 0.00, 9.84, 0.000, 0.000, 0.000, 09:24:35.718, 7
72, 13.28, 10.67, 0.00, 14.26, 0.000, 0.000, 0.000, 09:24:35.719, 7
73, 16.74, 15.98, 0.00, 19.76, 0.000, 0.000, 0.000, 09:24:35.719, 7
74, 16.72, 14.52, 0.00, 15.38, 0.000, 0.000, 0.000, 09:24:35.720, 7
75, 11.36, 9.95, 0.00, 15.38, 0.000, 0.000, 0.000, 09:24:35.720, 7
76, 11.39, 13.08, 0.00, 15.55, 0.000, 0.000, 0.000, 09:24:35.720, 7
77, 20.66, 19.37, 0.00, 24.07, 0.000, 0.000, 0.000, 09:24:35.731, 7
78, 15.91, 14.22, 0.00, 12.34, 0.000, 0.000, 0.000, 09:24:35.732, 7
79, 14.63, 8.50, 0.00, 16.55, 0.000, 0.000, 0.000, 09:24:35.762, 7
80, 11.44, 13.28, 0.00, 14.47, 0.000, 0.000, 0.000, 09:24:35.762, 7
81, 14.59, 17.74, 0.00, 20.74, 0.000, 0.000, 0.000, 09:24:35.763, 7
82, 18.59, 18.09, 0.00, 22.66, 0.000, 0.000, 0.000, 09:24:35.763, 7
83, 10.57, 8.18, 0.00, 11.00, 0.000, 0.000, 0.000, 09:24:35.763, 7
84, 13.83, 13.42, 0.00, 18.35, 0.000, 0.000, 0.000, 09:24:35.764, 7
85, 17.36, 18.74, 0.00, 17.25, 0.000, 0.000, 0.000, 09:24:35.777, 7
86, 14.09, 13.56, 0.00, 10.96, 0.000, 0.000, 0.000, 09:24:35.777, 7
87, 13.99, 12.53, 0.00, 17.54, 0.000, 0.000, 0.000, 09:24:35.792, 7
88, 13.73, 11.85, 0.00, 10.08, 0.000, 0.000, 0.000, 09:24:35.792, 7
89, 18.92, 16.06, 0.00, 21.43, 0.000, 0.000, 0.000, 09:24:35.792, 7
90, 17.96, 18.57, 0.00, 16.60, 0.000, 0.000, 0.000, 09:24:35.792, 7
91, 15.56, 12.44, 0.00, 11.96, 0.000, 0.000, 0.000, 09:24:35.807, 7
92, 9.40, 11.27, 0.00, 12.51, 0.000, 0.000, 0.000, 09:24:35.807, 7
93, 18.69, 18.85, 0.00, 22.12, 0.000, 0.000, 0.000, 09:24:35.837, 7
94, 13.79, 12.67, 0.00, 18.54, 0.000, 0.000, 0.000, 09:24:35.837, 7
95, 16.46, 11.42, 0.00, 12.62, 0.000, 0.000, 0.000, 09:24:35.838, 7
96, 12.35, 12.01, 0.00, 14.99, 0.000, 0.000, 0.000, 09:24:35.838, 7
97, 16.35, 18.77, 0.00, 22.65, 0.000, 0.000, 0.000, 09:24:35.838, 7
98, 16.31, 13.04, 0.00, 14.99, 0.000, 0.000, 0.000, 09:24:35.838, 7
99, 12.21, 9.73, 0.00, 13.41, 0.000, 0.000, 0.000, 09:24:35.839, 7
100, 11.30, 9.34, 0.00, 14.87, 0.000, 0.000, 0.000, 09:24:35.839, 7
101, 12.92, 16.41, 0.00, 19.18, 0.000, 0.000, 0.000, 09:24:35.853, 7
102, 13.91, 14.12, 0.00, 17.17, 0.000, 0.000, 0.000, 09:24:35.853, 7
103, 10.38, 8.10, 0.00, 12.21, 0.000, 0.000, 0.000, 09:24:35.884, 7
104, 12.29, 11.46, 0.00, 11.40, 0.000, 0.000, 0.000, 09:24:35.884, 7
105, 13.80, 17.51, 0.00, 21.73, 0.000, 0.000, 0.000, 09:24:35.885, 7
106, 14.23, 10.48, 0.00, 18.56, 0.000, 0.000, 0.000, 09:24:35.885, 7
107, 12.69, 8.73, 0.00, 15.32, 0.000, 0.000, 0.000, 09:24:35.885, 7
108, 14.96, 10.45, 0.00, 14.48, 0.000, 0.000, 0.000, 09:24:35.885, 7
109, 17.13, 15.63, 0.00, 20.05, 0.000, 0.000, 0.000, 09:24:35.913, 7
110, 16.77, 11.50, 0.00, 12.68, 0.000, 0.000, 0.000, 09:24:35.914, 7
111, 15.47, 12.62, 0.00, 13.80, 0.000, 0.000, 0.000, 09:24:35.914, 7
112, 13.00, 14.77, 0.00, 17.84, 0.000, 0.000, 0.000, 09:24:35.914, 7
113, 10.80, 15.16, 0.00, 14.94, 0.000, 0.000, 0.000, 09:24:35.915, 7
114, 13.43, 12.74, 0.00, 16.49, 0.000, 0.000, 0.000, 09:24:35.916, 7
115, 10.39, 8.36, 0.00, 12.13, 0.000, 0.000, 0.000, 09:24:35.927, 7
116, 10.83, 9.35, 0.00, 13.41, 0.000, 0.000, 0.000, 09:24:35.927, 7
117, 15.16, 15.23, 0.00, 24.62, 0.000, 0.000, 0.000, 09:24:35.942, 7
118, 13.29, 19.00, 0.00, 18.91, 0.000, 0.000, 0.000, 09:24:35.942, 7
119, 14.69, 8.24, 0.00, 10.31, 0.000, 0.000, 0.000, 09:24:35.957, 7
120, 11.53, 14.10, 0.00, 12.78, 0.000, 0.000, 0.000, 09:24:35.957, 7
121, 19.18, 19.67, 0.00, 17.62, 0.000, 0.000, 0.000, 09:24:35.958, 7
122, 17.47, 12.53, 0.00, 13.25, 0.000, 0.000, 0.000, 09:24:35.958, 7
123, 12.89, 12.27, 0.00, 13.33, 0.000, 0.000, 0.000, 09:24:35.972, 7
124, 11.32, 9.17, 0.00, 12.69, 0.000, 0.000, 0.000, 09:24:35.973, 7
125, 15.63, 14.88, 0.00, 14.12, 0.000, 0.000, 0.000, 09:24:35.973, 7
126, 15.98, 18.21, 0.00, 20.56, 0.000, 0.000, 0.000, 09:24:35.974, 7
127, 11.67, 12.44, 0.00, 10.92, 0.000, 0.000, 0.000, 09:24:35.987, 7
128, 13.06, 9.44, 0.00, 10.39, 0.000, 0.000, 0.000, 09:24:35.987, 7
129, 16.29, 19.76, 0.00, 24.03, 0.000, 0.000, 0.000, 09:24:36.002, 7
130, 16.15, 18.36, 0.00, 21.74, 0.000, 0.000, 0.000, 09:24:36.002, 7
131, 10.19, 5.71, 0.00, 11.17, 0.000, 0.000, 0.000, 09:24:36.002, 7
132, 15.74, 11.93, 0.00, 13.08, 0.000, 0.000, 0.000, 09:24:36.002, 7
133, 16.77, 17.65, 0.00, 22.43, 0.000, 0.000, 0.000, 09:24:36.017, 7
134, 20.08, 13.67, 0.00, 19.12, 0.000, 0.000, 0.000, 09:24:36.017, 7
135, 14.62, 14.65, 0.00, 11.91, 0.000, 0.000, 0.000, 09:24:36.032, 7
136, 11.58, 13.09, 0.00, 17.46, 0.000, 0.000, 0.000, 09:24:36.032, 7
137, 14.87, 12.02, 0.00, 17.98, 0.000, 0.000, 0.000, 09:24:36.034, 7
138, 14.73, 16.57, 0.00, 13.11, 0.000, 0.000, 0.000, 09:24:36.034, 7
139, 13.07, 6.53, 0.00, 10.30, 0.000, 0.000, 0.000, 09:24:36.047, 7
140, 13.39, 10.82, 0.00, 15.48, 0.000, 0.000, 0.000, 09:24:36.048, 7
141, 21.05, 15.78, 0.00, 20.81, 0.000, 0.000, 0.000, 09:24:36.077, 7
142, 16.49, 11.72, 0.00, 18.96, 0.000, 0.000, 0.000, 09:24:36.078, 7
143, 12.83, 12.85, 0.00, 12.73, 0.000, 0.000, 0.000, 09:24:36.079, 7
144, 18.52, 12.47, 0.00, 18.60, 0.000, 0.000, 0.000, 09:24:36.080, 7
145, 14.29, 17.13, 0.00, 21.16, 0.000, 0.000, 0.000, 09:24:36.080, 7
146, 12.84, 10.91, 0.00, 16.55, 0.000, 0.000, 0.000, 09:24:36.080, 7
147, 15.02, 12.98, 0.00, 15.98, 0.000, 0.000, 0.000, 09:24:36.081, 7
148, 19.17, 14.07, 0.00, 14.01, 0.000, 0.000, 0.000, 09:24:36.083, 7
149, 18.07, 15.73, 0.00, 17.59, 0.000, 0.000, 0.000, 09:24:36.106, 7
150, 12.60, 15.03, 0.00, 17.49, 0.000, 0.000, 0.000, 09:24:36.106, 7
151, 9.40, 10.37, 0.00, 12.49, 0.000, 0.000, 0.000, 09:24:36.107, 7
152, 14.70, 12.12, 0.00, 15.55, 0.000, 0.000, 0.000, 09:24:36.107, 7
153, 17.81, 18.62, 0.00, 19.71, 0.000, 0.000, 0.000, 09:24:36.121, 7
154, 15.73, 10.22, 0.00, 15.03, 0.000, 0.000, 0.000, 09:24:36.121, 7
155, 9.27, 6.57, 0.00, 10.54, 0.000, 0.000, 0.000, 09:24:36.122, 7
156, 16.15, 14.55, 0.00, 19.74, 0.000, 0.000, 0.000, 09:24:36.122, 7
157, 18.34, 22.53, 0.00, 22.79, 0.000, 0.000, 0.000, 09:24:36.136, 7
158, 11.05, 12.07, 0.00, 12.50, 0.000, 0.000, 0.000, 09:24:36.136, 7
159, 16.55, 11.56, 0.00, 16.07, 0.000, 0.000, 0.000, 09:24:36.151, 7
160, 15.77, 12.48, 0.00, 16.56, 0.000, 0.000, 0.000, 09:24:36.151, 7
161, 15.86, 13.02, 0.00, 16.21, 0.000, 0.000, 0.000, 09:24:36.152, 7
162, 14.87, 16.03, 0.00, 13.37, 0.000, 0.000, 0.000, 09:24:36.152, 7
163, 12.21, 8.67, 0.00, 11.35, 0.000, 0.000, 0.000, 09:24:36.166, 7
164, 13.23, 11.28, 0.00, 14.14, 0.000, 0.000, 0.000, 09:24:36.166, 7
165, 17.01, 19.58, 0.00, 24.34, 0.000, 0.000, 0.000, 09:24:36.198, 7
166, 13.68, 13.02, 0.00, 18.71, 0.000, 0.000, 0.000, 09:24:36.198, 7
167, 11.47, 10.89, 0.00, 10.52, 0.000, 0.000, 0.000, 09:24:36.200, 7
168, 12.99, 11.80, 0.00, 18.60, 0.000, 0.000, 0.000, 09:24:36.200, 7
169, 17.75, 18.36, 0.00, 25.94, 0.000, 0.000, 0.000, 09:24:36.201, 7
170, 12.12, 11.32, 0.00, 13.44, 0.000, 0.000, 0.000, 09:24:36.201, 7
171, 12.59, 11.02, 0.00, 11.00, 0.000, 0.000, 0.000, 09:24:36.201, 7
172, 12.72, 8.99, 0.00, 15.47, 0.000, 0.000, 0.000, 09:24:36.201, 7
173, 15.71, 17.79, 0.00, 15.22, 0.000, 0.000, 0.000, 09:24:36.227, 7
174, 14.40, 13.76, 0.00, 16.81, 0.000, 0.000, 0.000, 09:24:36.227, 7
175, 14.39, 9.71, 0.00, 15.99, 0.000, 0.000, 0.000, 09:24:36.228, 7
176, 16.18, 10.60, 0.00, 12.00, 0.000, 0.000, 0.000, 09:24:36.228, 7
177, 22.26, 20.21, 0.00, 22.04, 0.000, 0.000, 0.000, 09:24:36.242, 7
178, 14.09, 14.01, 0.00, 14.66, 0.000, 0.000, 0.000, 09:24:36.242, 7
179, 11.48, 10.09, 0.00, 13.71, 0.000, 0.000, 0.000, 09:24:36.243, 7
180, 11.89, 15.08, 0.00, 17.67, 0.000, 0.000, 0.000, 09:24:36.243, 7
181, 15.12, 16.90, 0.00, 20.14, 0.000, 0.000, 0.000, 09:24:36.257, 7
182, 15.57, 11.04, 0.00, 13.69, 0.000, 0.000, 0.000, 09:24:36.258, 7
183, 12.55, 12.44, 0.00, 11.42, 0.000, 0.000, 0.000, 09:24:36.272, 7
184, 15.18, 13.82, 0.00, 12.90, 0.000, 0.000, 0.000, 09:24:36.272, 7
185, 16.16, 12.41, 0.00, 17.58, 0.000, 0.000, 0.000, 09:24:36.273, 7
186, 12.12, 10.28, 0.00, 15.49, 0.000, 0.000, 0.000, 09:24:36.273, 7
187, 13.37, 8.20, 0.00, 13.03, 0.000, 0.000, 0.000, 09:24:36.294, 7
188, 14.73, 12.77, 0.00, 15.11, 0.000, 0.000, 0.000, 09:24:36.294, 7
189, 18.42, 17.51, 0.00, 23.92, 0.000, 0.000, 0.000, 09:24:36.318, 7
190, 15.78, 12.52, 0.00, 16.93, 0.000, 0.000, 0.000, 09:24:36.318, 7
191, 11.37, 7.47, 0.00, 10.60, 0.000, 0.000, 0.000, 09:24:36.319, 7
192, 13.80, 14.94, 0.00, 13.85, 0.000, 0.000, 0.000, 09:24:36.319, 7
193, 18.72, 19.95, 0.00, 24.16, 0.000, 0.000, 0.000, 09:24:36.320, 7
194, 11.29, 13.22, 0.00, 14.11, 0.000, 0.000, 0.000, 09:24:36.320, 7
195, 8.39, 10.57, 0.00, 14.25, 0.000, 0.000, 0.000, 09:24:36.321, 7
196, 15.03, 13.99, 0.00, 17.30, 0.000, 0.000, 0.000, 09:24:36.321, 7
197, 18.82, 18.47, 0.00, 20.91, 0.000, 0.000, 0.000, 09:24:36.332, 7
198, 14.47, 14.02, 0.00, 17.51, 0.000, 0.000, 0.000, 09:24:36.333, 7
199, 13.49, 8.73, 0.00, 12.80, 0.000, 0.000, 0.000, 09:24:36.347, 7
200, 15.32, 14.58, 0.00, 11.51, 0.000, 0.000, 0.000, 09:24:36.347, 7
0, 15.12, 17.75, 0.00, 16.62, 0.000, 0.000, 0.000, 09:24:36.348, 7
1, 13.62, 13.15, 0.00, 14.97, 0.000, 0.000, 0.000, 09:24:36.363, 7
2, 11.05, 9.61, 0.00, 10.92, 0.000, 0.000, 0.000, 09:24:36.363, 7
3, 17.89, 9.83, 0.00, 17.22, 0.000, 0.000, 0.000, 09:24:36.392, 7
4, 15.66, 19.10, 0.00, 21.23, 0.000, 0.000, 0.000, 09:24:36.392, 7
5, 13.37, 9.79, 0.00, 16.72, 0.000, 0.000, 0.000, 09:24:36.392, 7
6, 10.50, 12.47, 0.00, 15.82, 0.000, 0.000, 0.000, 09:24:36.393, 7
7, 15.85, 17.54, 0.00, 17.56, 0.000, 0.000, 0.000, 09:24:36.394, 7
8, 14.79, 11.75, 0.00, 15.60, 0.000, 0.000, 0.000, 09:24:36.395, 7
9, 16.66, 14.29, 0.00, 15.97, 0.000, 0.000, 0.000, 09:24:36.397, 7
10, 12.67, 8.66, 0.00, 10.74, 0.000, 0.000, 0.000, 09:24:36.397, 7
11, 15.72, 11.40, 0.00, 13.19, 0.000, 0.000, 0.000, 09:24:36.407, 7
12, 18.55, 16.61, 0.00, 22.17, 0.000, 0.000, 0.000, 09:24:36.407, 7
13, 16.28, 15.56, 0.00, 17.98, 0.000, 0.000, 0.000, 09:24:36.437, 7
14, 10.80, 7.33, 0.00, 10.53, 0.000, 0.000, 0.000, 09:24:36.437, 7
15, 12.13, 16.75, 0.00, 17.18, 0.000, 0.000, 0.000, 09:24:36.437, 7
16, 14.80, 15.16, 0.00, 22.95, 0.000, 0.000, 0.000, 09:24:36.438, 7
17, 10.90, 10.22, 0.00, 14.33, 0.000, 0.000, 0.000, 09:24:36.438, 7
18, 9.98, 7.83, 0.00, 14.59, 0.000, 0.000, 0.000, 09:24:36.438, 7
19, 17.42, 18.12, 0.00, 17.62, 0.000, 0.000, 0.000, 09:24:36.451, 7
20, 17.14, 12.92, 0.00, 15.10, 0.000, 0.000, 0.000, 09:24:36.452, 7
21, 15.52, 10.88, 0.00, 15.01, 0.000, 0.000, 0.000, 09:24:36.468, 7
22, 10.85, 13.22, 0.00, 14.02, 0.000, 0.000, 0.000, 09:24:36.468, 7
23, 12.04, 13.64, 0.00, 14.96, 0.000, 0.000, 0.000, 09:24:36.468, 7
24, 17.39, 18.31, 0.00, 19.42, 0.000, 0.000, 0.000, 09:24:36.469, 7
25, 12.25, 11.71, 0.00, 16.58, 0.000, 0.000, 0.000, 09:24:36.482, 7
26, 13.05, 10.02, 0.00, 13.20, 0.000, 0.000, 0.000, 09:24:36.482, 7
27, 18.43, 17.26, 0.00, 19.31, 0.000, 0.000, 0.000, 09:24:36.513, 7
28, 15.03, 18.27, 0.00, 20.47, 0.000, 0.000, 0.000, 09:24:36.513, 7
29, 14.22, 12.98, 0.00, 11.43, 0.000, 0.000, 0.000, 09:24:36.514, 7
30, 10.38, 12.78, 0.00, 11.21, 0.000, 0.000, 0.000, 09:24:36.514, 7
31, 13.80, 14.79, 0.00, 15.57, 0.000, 0.000, 0.000, 09:24:36.515, 7
32, 18.06, 18.48, 0.00, 18.93, 0.000, 0.000, 0.000, 09:24:36.515, 7
33, 13.94, 10.81, 0.00, 17.01, 0.000, 0.000, 0.000, 09:24:36.516, 7
34, 12.64, 7.60, 0.00, 14.34, 0.000, 0.000, 0.000, 09:24:36.517, 7
35, 15.80, 11.54, 0.00, 15.91, 0.000, 0.000, 0.000, 09:24:36.526, 7
36, 16.29, 17.39, 0.00, 19.57, 0.000, 0.000, 0.000, 09:24:36.527, 7
37, 14.24, 14.81, 0.00, 16.54, 0.000, 0.000, 0.000, 09:24:36.541, 7
38, 13.51, 5.53, 0.00, 11.41, 0.000, 0.000, 0.000, 09:24:36.541, 7
39, 16.37, 12.81, 0.00, 19.22, 0.000, 0.000, 0.000, 09:24:36.556, 7
40, 16.29, 15.09, 0.00, 20.38, 0.000, 0.000, 0.000, 09:24:36.556, 7
41, 15.83, 14.20, 0.00, 13.70, 0.000, 0.000, 0.000, 09:24:36.565, 7
42, 10.73, 11.36, 0.00, 8.85, 0.000, 0.000, 0.000, 09:24:36.565, 7
